* Measurement data measured by REW V5.20.13
* Source: EQ window target shape
* Format: 
* Dated: Oct 12, 2023 3:57:55 PM
* REW Settings:
*  C-weighting compensation: Off
*  Target level: 75.0 dB
* Note: 
* Measurement: Target RMS Average 1
* Smoothing: 1/48 octave
* Frequency Step: 1/96 octave
* Start Frequency: 20.000 Hz
*
* Freq(Hz)	SPL(dB)
20.000000	2.995
20.144928	2.985
20.290907	2.974
20.437943	2.964
20.586044	2.954
20.735220	2.943
20.885475	2.933
21.036821	2.922
21.189262	2.912
21.342808	2.902
21.497467	2.891
21.653246	2.881
21.810154	2.870
21.968201	2.860
22.127390	2.849
22.287735	2.839
22.449242	2.829
22.611917	2.818
22.775772	2.808
22.940815	2.797
23.107054	2.787
23.274498	2.777
23.443153	2.766
23.613033	2.756
23.784142	2.745
23.956491	2.735
24.130091	2.724
24.304947	2.714
24.481071	2.704
24.658470	2.693
24.837156	2.683
25.017136	2.672
25.198421	2.662
25.381020	2.652
25.564941	2.641
25.750195	2.631
25.936790	2.620
26.124741	2.610
26.314051	2.599
26.504732	2.589
26.696796	2.579
26.890253	2.568
27.085112	2.558
27.281382	2.547
27.479073	2.537
27.678198	2.527
27.878765	2.516
28.080786	2.506
28.284271	2.495
28.489231	2.485
28.695675	2.474
28.903616	2.464
29.113064	2.454
29.324028	2.443
29.536524	2.433
29.750557	2.422
29.966141	2.412
30.183289	2.402
30.402010	2.391
30.622314	2.381
30.844217	2.370
31.067726	2.360
31.292856	2.349
31.519617	2.339
31.748020	2.329
31.978081	2.318
32.209808	2.308
32.443211	2.297
32.678310	2.287
32.915108	2.277
33.153625	2.266
33.393871	2.256
33.635857	2.245
33.879597	2.235
34.125103	2.224
34.372387	2.214
34.621464	2.204
34.872345	2.193
35.125042	2.183
35.379574	2.172
35.635948	2.162
35.894180	2.152
36.154285	2.141
36.416275	2.131
36.680161	2.120
36.945961	2.110
37.213688	2.099
37.483353	2.088
37.754974	2.079
38.028561	2.081
38.304131	2.086
38.581699	2.083
38.861279	2.077
39.142883	2.068
39.426529	2.056
39.712231	2.046
40.000000	2.035
40.289856	2.025
40.581814	2.014
40.875885	2.004
41.172089	1.994
41.470440	1.983
41.770950	1.973
42.073643	1.962
42.378525	1.952
42.685616	1.942
42.994934	1.931
43.306492	1.921
43.620308	1.910
43.936401	1.900
44.254780	1.889
44.575470	1.879
44.898483	1.869
45.223835	1.858
45.551544	1.848
45.881630	1.838
46.214108	1.834
46.548996	1.842
46.886307	1.848
47.226067	1.841
47.568283	1.827
47.912983	1.817
48.260181	1.806
48.609894	1.796
48.962143	1.786
49.316940	1.775
49.674313	1.765
50.034271	1.754
50.396843	1.744
50.762039	1.734
51.129883	1.723
51.500389	1.713
51.873581	1.702
52.249481	1.692
52.628101	1.681
53.009464	1.671
53.393593	1.661
53.780506	1.650
54.170223	1.640
54.562763	1.629
54.958145	1.619
55.356396	1.607
55.757530	1.598
56.161572	1.608
56.568542	1.617
56.978462	1.610
57.391350	1.596
57.807232	1.584
58.226128	1.576
58.648056	1.587
59.073048	1.598
59.501114	1.590
59.932281	1.577
60.366577	1.567
60.804020	1.556
61.244629	1.546
61.688435	1.535
62.135452	1.525
62.585712	1.514
63.039234	1.504
63.496040	1.494
63.956161	1.483
64.419617	1.473
64.886421	1.462
65.356621	1.452
65.830215	1.442
66.307251	1.431
66.787743	1.419
67.271713	1.410
67.759193	1.420
68.250206	1.429
68.744774	1.421
69.242928	1.409
69.744690	1.402
70.250084	1.400
70.759148	1.405
71.271896	1.410
71.788361	1.402
72.308571	1.389
72.832550	1.379
73.360321	1.368
73.891922	1.358
74.427376	1.347
74.966705	1.337
75.509949	1.327
76.057121	1.316
76.608261	1.306
77.163399	1.295
77.722557	1.285
78.285767	1.275
78.853058	1.264
79.424461	1.254
80.000000	1.243
80.579712	1.230
81.163628	1.222
81.751770	1.232
82.344177	1.241
82.940880	1.230
83.541901	1.220
84.147285	1.231
84.757050	1.242
85.371231	1.235
85.989868	1.221
86.612984	1.211
87.240616	1.200
87.872803	1.190
88.509560	1.179
89.150940	1.169
89.796967	1.159
90.447670	1.148
91.103088	1.138
91.763260	1.127
92.428215	1.117
93.097992	1.107
93.772614	1.096
94.452133	1.090
95.136566	1.086
95.825966	1.091
96.520363	1.094
97.219788	1.086
97.924286	1.074
98.633881	1.061
99.348625	1.053
100.068542	1.064
100.793686	1.075
101.524078	1.070
102.259766	1.054
103.000778	1.030
103.747162	1.007
104.498962	1.008
105.256203	1.012
106.018929	1.002
106.787186	0.992
107.561012	1.001
108.340446	1.011
109.125526	1.002
109.916290	0.990
110.712791	0.977
111.515060	0.969
112.323143	0.980
113.137085	0.990
113.956924	0.983
114.782700	0.969
115.614464	0.959
116.452255	0.949
117.296112	0.938
118.146095	0.928
119.002228	0.917
119.864563	0.907
120.733154	0.897
121.608040	0.886
122.489258	0.876
123.376869	0.865
124.270905	0.855
125.171425	0.844
126.078468	0.834
126.992081	0.824
127.912323	0.812
128.839233	0.803
129.772842	0.805
130.713242	0.809
131.660431	0.807
132.614502	0.801
133.575485	0.790
134.543427	0.780
135.518387	0.794
136.500412	0.802
137.489548	0.772
138.485855	0.741
139.489380	0.744
140.500168	0.754
141.518295	0.749
142.543793	0.740
143.576721	0.731
144.617142	0.719
145.665100	0.709
146.720642	0.698
147.783844	0.688
148.854752	0.677
149.933411	0.667
151.019897	0.657
152.114243	0.646
153.216522	0.636
154.326797	0.625
155.445114	0.615
156.571533	0.605
157.706116	0.594
158.848923	0.582
160.000000	0.573
161.159424	0.581
162.327255	0.588
163.503540	0.581
164.688354	0.572
165.881760	0.575
167.083801	0.579
168.294571	0.578
169.514099	0.573
170.742462	0.564
171.979736	0.552
173.225967	0.542
174.481232	0.531
175.745605	0.521
177.019119	0.510
178.301880	0.500
179.593933	0.490
180.895340	0.479
182.206177	0.469
183.526520	0.458
184.856430	0.448
186.195984	0.438
187.545227	0.427
188.904266	0.417
190.273132	0.406
191.651932	0.396
193.040726	0.385
194.439575	0.375
195.848572	0.365
197.267761	0.354
198.697250	0.344
200.137085	0.333
201.587372	0.323
203.048157	0.313
204.519531	0.302
206.001556	0.292
207.494324	0.281
208.997925	0.271
210.512405	0.260
212.037857	0.250
213.574371	0.240
215.122025	0.229
216.680893	0.219
218.251053	0.208
219.832581	0.198
221.425583	0.188
223.030121	0.177
224.646286	0.167
226.274170	0.156
227.913849	0.144
229.565399	0.135
231.228928	0.145
232.904510	0.155
234.592224	0.145
236.292191	0.134
238.004456	0.137
239.729126	0.143
241.466309	0.141
243.216080	0.134
244.978516	0.125
246.753738	0.113
248.541809	0.105
250.342850	0.089
252.156937	0.053
253.984161	0.016
255.824646	-0.003
257.678467	-0.015
259.545685	-0.032
261.426483	-0.046
263.320862	-0.055
265.229004	-0.073
267.150970	-0.119
269.086853	-0.167
271.036774	-0.187
273.000824	-0.198
274.979095	-0.208
276.971710	-0.218
278.978760	-0.229
281.000336	-0.239
283.036591	-0.250
285.087585	-0.260
287.153442	-0.270
289.234283	-0.281
291.330200	-0.287
293.441284	-0.292
295.567688	-0.294
297.709503	-0.293
299.866821	-0.280
302.039795	-0.267
304.228485	-0.277
306.433044	-0.281
308.653595	-0.255
310.890228	-0.220
313.143066	-0.188
315.412231	-0.158
317.697845	-0.129
320.000000	-0.100
322.318848	-0.068
324.654510	-0.036
327.007080	-0.004
329.376709	0.028
331.763519	0.059
334.167603	0.089
336.589142	0.115
339.028198	0.141
341.484924	0.171
343.959473	0.193
346.451935	0.192
348.962463	0.192
351.491211	0.222
354.038239	0.256
356.603760	0.280
359.187866	0.301
361.790680	0.323
364.412354	0.345
367.053040	0.370
369.712860	0.390
372.391968	0.387
375.090454	0.381
377.808533	0.388
380.546265	0.401
383.303864	0.427
386.081451	0.448
388.879150	0.448
391.697144	0.443
394.535522	0.442
397.394501	0.447
400.274170	0.467
403.174744	0.484
406.096313	0.472
409.039062	0.463
412.003113	0.494
414.988647	0.524
417.995850	0.516
421.024811	0.503
424.075714	0.513
427.148743	0.525
430.244049	0.521
433.361786	0.518
436.502106	0.531
439.665161	0.545
442.851166	0.544
446.060242	0.542
449.292572	0.553
452.548340	0.560
455.827698	0.550
459.130798	0.539
462.457855	0.549
465.809021	0.559
469.184448	0.548
472.584381	0.538
476.008911	0.547
479.458252	0.557
482.932617	0.547
486.432159	0.536
489.957031	0.547
493.507477	0.556
497.083618	0.547
500.685699	0.535
504.313873	0.536
507.968323	0.538
511.649292	0.538
515.356934	0.535
519.091370	0.522
522.852966	0.514
526.641724	0.524
530.458008	0.534
534.301941	0.530
538.173706	0.524
542.073547	0.530
546.001648	0.539
549.958191	0.549
553.943420	0.555
557.957520	0.542
562.000671	0.535
566.073181	0.565
570.175171	0.597
574.306885	0.593
578.468567	0.587
582.660400	0.613
586.882568	0.638
591.135376	0.633
595.419006	0.628
599.733643	0.655
604.079590	0.686
608.456970	0.695
612.866089	0.701
617.307190	0.710
621.780457	0.723
626.286133	0.741
630.824463	0.761
635.395691	0.785
640.000000	0.803
644.637695	0.806
649.309021	0.806
654.014160	0.825
658.753418	0.845
663.527039	0.857
668.335205	0.867
673.178284	0.877
678.056396	0.885
682.969849	0.881
687.918945	0.881
692.903870	0.905
697.924927	0.930
702.982422	0.936
708.076477	0.939
713.207520	0.952
718.375732	0.967
723.581360	0.978
728.824707	0.989
734.106079	1.001
739.425720	1.008
744.783936	0.997
750.180908	0.987
755.617065	1.001
761.092529	1.018
766.607727	1.020
772.162903	1.022
777.758301	1.037
783.394287	1.055
789.071045	1.077
794.789001	1.094
800.548340	1.092
806.349487	1.088
812.192627	1.095
818.078125	1.107
824.006226	1.131
829.977295	1.151
835.991699	1.151
842.049622	1.148
848.151428	1.166
854.297485	1.189
860.488098	1.208
866.723572	1.230
873.004211	1.265
879.330322	1.292
885.702332	1.282
892.120483	1.271
898.585144	1.297
905.096680	1.333
911.655396	1.368
918.261597	1.394
924.915710	1.399
931.618042	1.401
938.368896	1.416
945.168762	1.436
952.017822	1.455
958.916504	1.472
965.865234	1.482
972.864319	1.488
979.914062	1.494
987.014954	1.504
994.167236	1.532
1001.371399	1.559
1008.627747	1.573
1015.936646	1.578
1023.298584	1.566
1030.713867	1.560
1038.182739	1.584
1045.705933	1.619
1053.283447	1.649
1060.916016	1.679
1068.603882	1.714
1076.347412	1.745
1084.147095	1.765
1092.003296	1.778
1099.916382	1.784
1107.886841	1.795
1115.915039	1.828
1124.001343	1.866
1132.146362	1.888
1140.350342	1.910
1148.613770	1.935
1156.937134	1.962
1165.320801	1.994
1173.765137	2.026
1182.270752	2.063
1190.838013	2.097
1199.467285	2.122
1208.159180	2.146
1216.913940	2.172
1225.732178	2.204
1234.614380	2.246
1243.560913	2.290
1252.572266	2.326
1261.648926	2.362
1270.791382	2.404
1280.000000	2.452
1289.275391	2.516
1298.618042	2.580
1308.028320	2.628
1317.506836	2.675
1327.054077	2.732
1336.670410	2.795
1346.356567	2.864
1356.112793	2.939
1365.939697	3.021
1375.837891	3.101
1385.807739	3.171
1395.849854	3.241
1405.964844	3.327
1416.152954	3.414
1426.415039	3.487
1436.751465	3.566
1447.162720	3.672
1457.649414	3.783
1468.212158	3.874
1478.851440	3.966
1489.567871	4.070
1500.361816	4.178
1511.234131	4.286
1522.185059	4.395
1533.215454	4.504
1544.325806	4.612
1555.516602	4.721
1566.788574	4.830
1578.142090	4.938
1589.578003	5.047
1601.096680	5.155
1612.698975	5.264
1624.385254	5.372
1636.156250	5.481
1648.012451	5.589
1659.954590	5.702
1671.983398	5.830
1684.099243	5.958
1696.302856	6.077
1708.594971	6.189
1720.976196	6.292
1733.447144	6.393
1746.008423	6.498
1758.660645	6.602
1771.404663	6.692
1784.240967	6.782
1797.170288	6.889
1810.193359	6.996
1823.310791	7.090
1836.523193	7.179
1849.831421	7.269
1863.236084	7.359
1876.737793	7.446
1890.337524	7.538
1904.035645	7.645
1917.833008	7.748
1931.730469	7.818
1945.728638	7.883
1959.828125	7.973
1974.029907	8.060
1988.334473	8.123
2002.742798	8.179
2017.255493	8.245
2031.873291	8.315
2046.597168	8.390
2061.427734	8.471
2076.365479	8.553
2091.411865	8.635
2106.566895	8.711
2121.832031	8.781
2137.207764	8.849
2152.694824	8.914
2168.294189	8.985
2184.006592	9.054
2199.832764	9.115
2215.773682	9.175
2231.830078	9.242
2248.002686	9.310
2264.292725	9.370
2280.700684	9.431
2297.227539	9.500
2313.874268	9.570
2330.641602	9.641
2347.530273	9.710
2364.541504	9.782
2381.676025	9.849
2398.934570	9.900
2416.318359	9.956
2433.827881	10.041
2451.464355	10.131
2469.228760	10.201
2487.121826	10.270
2505.144531	10.350
2523.297852	10.432
2541.582764	10.513
2560.000000	10.592
2578.550781	10.664
2597.236084	10.734
2616.056641	10.808
2635.013672	10.881
2654.108154	10.945
2673.340820	11.015
2692.713135	11.106
2712.225586	11.203
2731.879395	11.293
2751.675781	11.372
2771.615479	11.431
2791.699707	11.482
2811.929688	11.546
2832.305908	11.604
2852.830078	11.635
2873.502930	11.668
2894.325439	11.733
2915.298828	11.801
2936.424316	11.841
2957.702881	11.873
2979.135742	11.905
3000.723633	11.935
3022.468262	11.971
3044.370117	11.997
3066.430908	11.987
3088.651611	11.976
3111.033203	12.007
3133.577148	12.038
3156.284180	12.033
3179.156006	12.018
3202.193359	12.007
3225.397949	11.997
3248.770508	11.989
3272.312500	11.976
3296.024902	11.943
3319.909180	11.909
3343.966797	11.899
3368.198486	11.888
3392.605713	11.858
3417.189941	11.823
3441.952393	11.792
3466.894287	11.763
3492.016846	11.731
3517.321289	11.699
3542.809326	11.669
3568.481934	11.633
3594.340576	11.584
3620.386719	11.530
3646.621582	11.479
3673.046387	11.430
3699.662842	11.392
3726.472168	11.349
3753.475586	11.282
3780.675049	11.215
3808.071289	11.160
3835.666016	11.111
3863.460938	11.060
3891.457275	11.008
3919.656250	10.958
3948.059814	10.904
3976.668945	10.838
4005.485596	10.773
4034.510986	10.722
4063.746582	10.674
4093.194336	10.625
4122.855469	10.575
4152.730957	10.518
4182.823730	10.462
4213.133789	10.414
4243.664062	10.368
4274.415527	10.326
4305.389648	10.274
4336.588379	10.186
4368.013184	10.097
4399.665527	10.046
4431.547363	10.004
4463.660156	9.952
4496.005371	9.900
4528.585449	9.851
4561.401367	9.801
4594.455078	9.744
4627.748535	9.684
4661.283203	9.624
4695.060547	9.562
4729.083008	9.498
4763.352051	9.433
4797.869141	9.377
4832.636719	9.316
4867.655762	9.231
4902.928711	9.144
4938.457520	9.070
4974.243652	9.000
5010.289062	8.930
5046.595703	8.855
5083.165527	8.767
5120.000000	8.680
5157.101562	8.610
5194.472168	8.540
5232.113281	8.450
5270.027344	8.359
5308.216309	8.281
5346.681641	8.204
5385.426270	8.117
5424.451172	8.027
5463.758789	7.945
5503.351562	7.856
5543.230957	7.745
5583.399414	7.632
5623.859375	7.542
5664.611816	7.456
5705.660156	7.369
5747.005859	7.280
5788.650879	7.184
5830.597656	7.088
5872.848633	6.996
5915.405762	6.906
5958.271484	6.818
6001.447266	6.725
6044.936523	6.621
6088.740234	6.514
6132.861816	6.412
6177.303223	6.314
6222.066406	6.230
6267.154297	6.138
6312.568359	6.013
6358.312012	5.880
6404.386719	5.753
6450.795898	5.639
6497.541016	5.551
6544.625000	5.469
6592.049805	5.377
6639.818359	5.281
6687.933594	5.186
6736.396973	5.088
6785.211426	4.989
6834.379883	4.892
6883.904785	4.796
6933.788574	4.703
6984.033691	4.614
7034.642578	4.523
7085.618652	4.424
7136.963867	4.322
7188.681152	4.227
7240.773438	4.134
7293.243164	4.044
7346.092773	3.956
7399.325684	3.876
7452.944336	3.799
7506.951172	3.710
7561.350098	3.630
7616.142578	3.577
7671.332031	3.537
7726.921875	3.500
7782.914551	3.463
7839.312500	3.422
7896.119629	3.381
7953.337891	3.344
8010.971191	3.309
8069.021973	3.278
8127.493164	3.248
8186.388672	3.219
8245.710938	3.186
8305.461914	3.141
8365.647461	3.096
8426.267578	3.061
8487.328125	3.022
8548.831055	2.964
8610.779297	2.903
8673.176758	2.856
8736.026367	2.805
8799.331055	2.740
8863.094727	2.664
8927.320312	2.579
8992.010742	2.487
9057.170898	2.391
9122.802734	2.293
9188.910156	2.192
9255.497070	2.088
9322.566406	1.984
9390.121094	1.877
9458.166016	1.769
9526.704102	1.658
9595.738281	1.543
9665.273438	1.428
9735.311523	1.317
9805.857422	1.206
9876.915039	1.083
9948.487305	0.970
10020.578125	0.887
10093.191406	0.809
10166.331055	0.708
10240.000000	0.610
10314.203125	0.537
10388.944336	0.474
10464.226562	0.421
10540.054688	0.368
10616.432617	0.299
10693.363281	0.234
10770.852539	0.189
10848.902344	0.154
10927.517578	0.118
11006.703125	0.090
11086.461914	0.091
11166.798828	0.094
11247.718750	0.076
11329.223633	0.052
11411.320312	0.035
11494.011719	0.021
11577.301758	0.014
11661.195312	0.011
11745.697266	0.002
11830.811523	0.006
11916.542969	0.042
12002.894531	0.084
12089.873047	0.109
12177.480469	0.133
12265.723633	0.174
12354.606445	0.211
12444.132812	0.222
12534.308594	0.234
12625.136719	0.266
12716.624023	0.307
12808.773438	0.355
12901.591797	0.401
12995.082031	0.437
13089.250000	0.463
13184.099609	0.472
13279.636719	0.481
13375.867188	0.512
13472.793945	0.542
13570.422852	0.554
13668.759766	0.561
13767.809570	0.573
13867.577148	0.580
13968.067383	0.568
14069.285156	0.549
14171.237305	0.526
14273.927734	0.504
14377.362305	0.492
14481.546875	0.481
14586.486328	0.469
14692.185547	0.452
14798.651367	0.424
14905.888672	0.392
15013.902344	0.368
15122.700195	0.342
15232.285156	0.295
15342.664062	0.249
15453.843750	0.228
15565.829102	0.208
15678.625000	0.173
15792.239258	0.131
15906.675781	0.089
16021.942383	0.039
16138.043945	-0.030
16254.986328	-0.099
16372.777344	-0.146
16491.421875	-0.190
16610.923828	-0.260
16731.294922	-0.328
16852.535156	-0.371
16974.656250	-0.414
17097.662109	-0.477
17221.558594	-0.546
17346.353516	-0.599
17472.052734	-0.657
17598.662109	-0.735
17726.189453	-0.819
17854.640625	-0.901
17984.021484	-0.978
18114.341797	-1.046
18245.605469	-1.113
18377.820312	-1.194
18510.994141	-1.274
18645.132812	-1.339
18780.242188	-1.403
18916.332031	-1.478
19053.408203	-1.556
19191.476562	-1.627
19330.546875	-1.693
19470.623047	-1.751
19611.714844	-1.797
19753.830078	-1.819
19896.974609	-1.833
