* Measurement data measured by REW V5.20.9
* Source: /Users/griff/Desktop/0 - REW Curves/Targets/Circumaural Targets/Harman/Harman2018OE.txt
* Format: Comma/Tab/Space delimited data
* Dated: Jul 25, 2022 3:18:07 AM
* REW Settings:
*  C-weighting compensation: Off
*  Target level: 75.0 dB
* Note: Measurement imported from /Users/griff/Desktop/0 - REW Curves/Targets/Circumaural Targets/Harman/Harman2018OE.txt Format: Comma/Tab/Space delimited data 957 values loaded, 20 Hz to 19,895 Hz log spaced
* Measurement: Harman2018OE
* Smoothing: 1/48 octave
* Frequency Step: 96 ppo
* Start Frequency: 20.0 Hz
*
* Freq(Hz) SPL(dB) Phase(degrees)
19.999107 93.955 0.0000
20.144030 93.966 0.0000
20.290001 93.981 0.0000
20.437031 93.998 0.0000
20.585127 94.017 0.0000
20.734295 94.035 0.0000
20.884544 94.053 0.0000
21.035883 94.069 0.0000
21.188318 94.083 0.0000
21.341858 94.092 0.0000
21.496510 94.099 0.0000
21.652283 94.104 0.0000
21.809185 94.109 0.0000
21.967224 94.115 0.0000
22.126408 94.120 0.0000
22.286745 94.125 0.0000
22.448244 94.128 0.0000
22.610914 94.127 0.0000
22.774763 94.125 0.0000
22.939798 94.124 0.0000
23.106030 94.122 0.0000
23.273466 94.121 0.0000
23.442116 94.119 0.0000
23.611986 94.118 0.0000
23.783089 94.117 0.0000
23.955431 94.116 0.0000
24.129023 94.114 0.0000
24.303871 94.113 0.0000
24.479986 94.112 0.0000
24.657379 94.111 0.0000
24.836056 94.109 0.0000
25.016027 94.108 0.0000
25.197304 94.107 0.0000
25.379894 94.106 0.0000
25.563807 94.104 0.0000
25.749052 94.103 0.0000
25.935640 94.102 0.0000
26.123581 94.101 0.0000
26.312883 94.099 0.0000
26.503557 94.097 0.0000
26.695612 94.095 0.0000
26.889059 94.093 0.0000
27.083908 94.090 0.0000
27.280169 94.088 0.0000
27.477852 94.085 0.0000
27.676968 94.082 0.0000
27.877527 94.079 0.0000
28.079538 94.077 0.0000
28.283014 94.074 0.0000
28.487965 94.071 0.0000
28.694401 94.067 0.0000
28.902332 94.064 0.0000
29.111771 94.061 0.0000
29.322727 94.058 0.0000
29.535212 94.055 0.0000
29.749235 94.052 0.0000
29.964811 94.048 0.0000
30.181950 94.043 0.0000
30.400660 94.037 0.0000
30.620955 94.031 0.0000
30.842846 94.025 0.0000
31.066345 94.019 0.0000
31.291464 94.013 0.0000
31.518215 94.008 0.0000
31.746609 94.003 0.0000
31.976658 93.998 0.0000
32.208374 93.993 0.0000
32.441769 93.989 0.0000
32.676853 93.984 0.0000
32.913643 93.980 0.0000
33.152149 93.975 0.0000
33.392384 93.969 0.0000
33.634357 93.963 0.0000
33.878086 93.956 0.0000
34.123581 93.949 0.0000
34.370853 93.942 0.0000
34.619919 93.934 0.0000
34.870789 93.927 0.0000
35.123478 93.919 0.0000
35.377998 93.912 0.0000
35.634361 93.905 0.0000
35.892582 93.898 0.0000
36.152676 93.891 0.0000
36.414654 93.885 0.0000
36.678528 93.878 0.0000
36.944317 93.872 0.0000
37.212032 93.865 0.0000
37.481686 93.858 0.0000
37.753292 93.851 0.0000
38.026867 93.843 0.0000
38.302425 93.835 0.0000
38.579979 93.827 0.0000
38.859547 93.819 0.0000
39.141140 93.812 0.0000
39.424774 93.804 0.0000
39.710461 93.796 0.0000
39.998219 93.788 0.0000
40.288063 93.780 0.0000
40.580006 93.771 0.0000
40.874065 93.763 0.0000
41.170258 93.755 0.0000
41.468594 93.747 0.0000
41.769093 93.738 0.0000
42.071770 93.730 0.0000
42.376640 93.722 0.0000
42.683720 93.712 0.0000
42.993023 93.700 0.0000
43.304569 93.689 0.0000
43.618374 93.677 0.0000
43.934452 93.666 0.0000
44.252819 93.654 0.0000
44.573494 93.643 0.0000
44.896492 93.631 0.0000
45.221832 93.619 0.0000
45.549530 93.606 0.0000
45.879601 93.593 0.0000
46.212063 93.579 0.0000
46.546936 93.566 0.0000
46.884235 93.552 0.0000
47.223976 93.539 0.0000
47.566181 93.524 0.0000
47.910866 93.508 0.0000
48.258049 93.491 0.0000
48.607746 93.474 0.0000
48.959976 93.457 0.0000
49.314762 93.440 0.0000
49.672115 93.423 0.0000
50.032059 93.407 0.0000
50.394611 93.390 0.0000
50.759792 93.374 0.0000
51.127617 93.358 0.0000
51.498108 93.342 0.0000
51.871284 93.326 0.0000
52.247166 93.310 0.0000
52.625771 93.294 0.0000
53.007118 93.277 0.0000
53.391232 93.259 0.0000
53.778126 93.241 0.0000
54.167824 93.222 0.0000
54.560345 93.204 0.0000
54.955711 93.186 0.0000
55.353943 93.168 0.0000
55.755062 93.149 0.0000
56.159088 93.132 0.0000
56.566040 93.116 0.0000
56.975941 93.101 0.0000
57.388813 93.085 0.0000
57.804676 93.069 0.0000
58.223553 93.053 0.0000
58.645466 93.038 0.0000
59.070435 93.022 0.0000
59.498482 93.006 0.0000
59.929634 92.988 0.0000
60.363911 92.968 0.0000
60.801331 92.945 0.0000
61.241920 92.922 0.0000
61.685703 92.897 0.0000
62.132702 92.874 0.0000
62.582939 92.850 0.0000
63.036442 92.828 0.0000
63.493229 92.806 0.0000
63.953327 92.786 0.0000
64.416756 92.766 0.0000
64.883545 92.747 0.0000
65.353722 92.727 0.0000
65.827301 92.707 0.0000
66.304314 92.687 0.0000
66.784782 92.667 0.0000
67.268730 92.646 0.0000
67.756187 92.624 0.0000
68.247177 92.601 0.0000
68.741722 92.579 0.0000
69.239853 92.556 0.0000
69.741592 92.534 0.0000
70.246971 92.511 0.0000
70.756012 92.489 0.0000
71.268738 92.465 0.0000
71.785179 92.441 0.0000
72.305367 92.415 0.0000
72.829323 92.390 0.0000
73.357071 92.365 0.0000
73.888649 92.340 0.0000
74.424080 92.314 0.0000
74.963387 92.290 0.0000
75.506599 92.266 0.0000
76.053749 92.243 0.0000
76.604866 92.219 0.0000
77.159973 92.196 0.0000
77.719109 92.172 0.0000
78.282295 92.149 0.0000
78.849564 92.125 0.0000
79.420937 92.102 0.0000
79.996452 92.077 0.0000
80.576141 92.052 0.0000
81.160027 92.026 0.0000
81.748146 92.000 0.0000
82.340530 91.973 0.0000
82.937202 91.947 0.0000
83.538200 91.921 0.0000
84.143555 91.895 0.0000
84.753296 91.868 0.0000
85.367455 91.841 0.0000
85.986061 91.812 0.0000
86.609154 91.783 0.0000
87.236763 91.753 0.0000
87.868919 91.724 0.0000
88.505653 91.695 0.0000
89.147003 91.667 0.0000
89.792999 91.637 0.0000
90.443680 91.606 0.0000
91.099075 91.574 0.0000
91.759216 91.542 0.0000
92.424141 91.510 0.0000
93.093887 91.478 0.0000
93.768486 91.446 0.0000
94.447968 91.414 0.0000
95.132378 91.381 0.0000
95.821747 91.347 0.0000
96.516113 91.311 0.0000
97.215508 91.276 0.0000
97.919968 91.240 0.0000
98.629539 91.205 0.0000
99.344254 91.170 0.0000
100.064140 91.135 0.0000
100.789246 91.100 0.0000
101.519608 91.066 0.0000
102.255264 91.031 0.0000
102.996246 90.996 0.0000
103.742599 90.961 0.0000
104.494362 90.927 0.0000
105.251572 90.892 0.0000
106.014267 90.857 0.0000
106.782494 90.821 0.0000
107.556282 90.785 0.0000
108.335678 90.747 0.0000
109.120720 90.711 0.0000
109.911453 90.674 0.0000
110.707916 90.638 0.0000
111.510155 90.600 0.0000
112.318207 90.562 0.0000
113.132111 90.522 0.0000
113.951912 90.483 0.0000
114.777657 90.442 0.0000
115.609383 90.402 0.0000
116.447136 90.361 0.0000
117.290962 90.321 0.0000
118.140900 90.282 0.0000
118.996994 90.246 0.0000
119.859299 90.209 0.0000
120.727852 90.173 0.0000
121.602699 90.136 0.0000
122.483879 90.100 0.0000
123.371445 90.064 0.0000
124.265442 90.028 0.0000
125.165924 89.991 0.0000
126.072929 89.954 0.0000
126.986504 89.917 0.0000
127.906700 89.880 0.0000
128.833572 89.843 0.0000
129.767151 89.806 0.0000
130.707504 89.768 0.0000
131.654663 89.732 0.0000
132.608688 89.697 0.0000
133.569626 89.664 0.0000
134.537521 89.630 0.0000
135.512436 89.597 0.0000
136.494415 89.564 0.0000
137.483505 89.531 0.0000
138.479767 89.497 0.0000
139.483246 89.466 0.0000
140.494003 89.435 0.0000
141.512085 89.407 0.0000
142.537537 89.380 0.0000
143.570419 89.353 0.0000
144.610794 89.326 0.0000
145.658707 89.299 0.0000
146.714203 89.271 0.0000
147.777359 89.244 0.0000
148.848221 89.217 0.0000
149.926834 89.190 0.0000
151.013260 89.161 0.0000
152.107559 89.133 0.0000
153.209793 89.103 0.0000
154.320007 89.074 0.0000
155.438278 89.044 0.0000
156.564651 89.015 0.0000
157.699188 88.986 0.0000
158.841934 88.957 0.0000
159.992966 88.928 0.0000
161.152344 88.901 0.0000
162.320114 88.873 0.0000
163.496353 88.846 0.0000
164.681122 88.818 0.0000
165.874466 88.791 0.0000
167.076462 88.764 0.0000
168.287170 88.737 0.0000
169.506653 88.709 0.0000
170.734970 88.681 0.0000
171.972183 88.653 0.0000
173.218369 88.626 0.0000
174.473587 88.598 0.0000
175.737900 88.570 0.0000
177.011368 88.542 0.0000
178.294067 88.515 0.0000
179.586060 88.487 0.0000
180.887421 88.461 0.0000
182.198212 88.435 0.0000
183.518494 88.410 0.0000
184.848343 88.384 0.0000
186.187836 88.359 0.0000
187.537033 88.333 0.0000
188.896011 88.309 0.0000
190.264832 88.285 0.0000
191.643570 88.263 0.0000
193.032303 88.241 0.0000
194.431091 88.220 0.0000
195.840012 88.199 0.0000
197.259155 88.178 0.0000
198.688583 88.158 0.0000
200.128357 88.140 0.0000
201.578568 88.124 0.0000
203.039291 88.112 0.0000
204.510605 88.100 0.0000
205.992569 88.088 0.0000
207.485275 88.075 0.0000
208.988800 88.062 0.0000
210.503220 88.050 0.0000
212.028610 88.041 0.0000
213.565063 88.033 0.0000
215.112640 88.027 0.0000
216.671432 88.022 0.0000
218.241516 88.017 0.0000
219.822983 88.012 0.0000
221.415909 88.006 0.0000
223.020386 88.001 0.0000
224.636490 88.000 0.0000
226.264297 88.000 0.0000
227.903900 88.001 0.0000
229.555389 88.003 0.0000
231.218842 88.004 0.0000
232.894348 88.005 0.0000
234.582001 88.007 0.0000
236.281876 88.011 0.0000
237.994064 88.017 0.0000
239.718674 88.024 0.0000
241.455780 88.031 0.0000
243.205475 88.039 0.0000
244.967834 88.046 0.0000
246.742966 88.054 0.0000
248.530960 88.063 0.0000
250.331924 88.072 0.0000
252.145935 88.083 0.0000
253.973083 88.095 0.0000
255.813477 88.107 0.0000
257.667206 88.120 0.0000
259.534363 88.132 0.0000
261.415070 88.144 0.0000
263.309387 88.157 0.0000
265.217438 88.170 0.0000
267.139313 88.185 0.0000
269.075104 88.201 0.0000
271.024933 88.217 0.0000
272.988892 88.233 0.0000
274.967072 88.249 0.0000
276.959595 88.264 0.0000
278.966553 88.280 0.0000
280.988068 88.295 0.0000
283.024231 88.309 0.0000
285.075134 88.322 0.0000
287.140900 88.335 0.0000
289.221649 88.349 0.0000
291.317474 88.362 0.0000
293.428467 88.376 0.0000
295.554779 88.389 0.0000
297.696503 88.403 0.0000
299.853729 88.419 0.0000
302.026581 88.436 0.0000
304.215179 88.455 0.0000
306.419647 88.474 0.0000
308.640076 88.493 0.0000
310.876617 88.513 0.0000
313.129364 88.532 0.0000
315.398438 88.550 0.0000
317.683929 88.566 0.0000
319.985992 88.582 0.0000
322.304749 88.597 0.0000
324.640289 88.612 0.0000
326.992767 88.627 0.0000
329.362305 88.642 0.0000
331.748993 88.657 0.0000
334.152985 88.672 0.0000
336.574402 88.687 0.0000
339.013367 88.701 0.0000
341.470001 88.715 0.0000
343.944427 88.728 0.0000
346.436798 88.742 0.0000
348.947235 88.756 0.0000
351.475861 88.770 0.0000
354.022797 88.783 0.0000
356.588196 88.795 0.0000
359.172180 88.807 0.0000
361.774902 88.819 0.0000
364.396484 88.831 0.0000
367.037048 88.843 0.0000
369.696747 88.855 0.0000
372.375732 88.867 0.0000
375.074127 88.878 0.0000
377.792084 88.887 0.0000
380.529724 88.896 0.0000
383.287201 88.905 0.0000
386.064667 88.914 0.0000
388.862244 88.923 0.0000
391.680115 88.932 0.0000
394.518402 88.941 0.0000
397.377258 88.950 0.0000
400.256805 88.958 0.0000
403.157227 88.966 0.0000
406.078674 88.973 0.0000
409.021301 88.980 0.0000
411.985229 88.987 0.0000
414.970642 88.994 0.0000
417.977692 89.001 0.0000
421.006531 89.009 0.0000
424.057312 89.016 0.0000
427.130219 89.024 0.0000
430.225372 89.033 0.0000
433.342957 89.042 0.0000
436.483124 89.051 0.0000
439.646057 89.060 0.0000
442.831909 89.068 0.0000
446.040863 89.077 0.0000
449.273071 89.086 0.0000
452.528687 89.096 0.0000
455.807892 89.107 0.0000
459.110870 89.118 0.0000
462.437775 89.129 0.0000
465.788788 89.139 0.0000
469.164093 89.150 0.0000
472.563843 89.161 0.0000
475.988220 89.172 0.0000
479.437439 89.183 0.0000
482.911652 89.194 0.0000
486.411041 89.205 0.0000
489.935791 89.217 0.0000
493.486053 89.228 0.0000
497.062042 89.239 0.0000
500.663971 89.250 0.0000
504.291992 89.262 0.0000
507.946289 89.275 0.0000
511.627075 89.287 0.0000
515.334534 89.300 0.0000
519.068848 89.312 0.0000
522.830261 89.325 0.0000
526.618896 89.337 0.0000
530.434998 89.350 0.0000
534.278748 89.363 0.0000
538.150330 89.376 0.0000
542.049988 89.389 0.0000
545.977905 89.402 0.0000
549.934265 89.416 0.0000
553.919312 89.429 0.0000
557.933228 89.441 0.0000
561.976257 89.453 0.0000
566.048584 89.464 0.0000
570.150391 89.474 0.0000
574.281921 89.485 0.0000
578.443420 89.495 0.0000
582.635071 89.506 0.0000
586.857056 89.516 0.0000
591.109680 89.526 0.0000
595.393127 89.537 0.0000
599.707581 89.548 0.0000
604.053284 89.560 0.0000
608.430481 89.573 0.0000
612.839417 89.587 0.0000
617.280273 89.601 0.0000
621.753357 89.614 0.0000
626.258850 89.627 0.0000
630.796997 89.640 0.0000
635.368042 89.651 0.0000
639.972168 89.661 0.0000
644.609680 89.672 0.0000
649.280762 89.682 0.0000
653.985718 89.693 0.0000
658.724792 89.703 0.0000
663.498169 89.714 0.0000
668.306152 89.724 0.0000
673.148987 89.734 0.0000
678.026917 89.743 0.0000
682.940186 89.752 0.0000
687.889038 89.760 0.0000
692.873779 89.768 0.0000
697.894653 89.777 0.0000
702.951904 89.786 0.0000
708.045776 89.795 0.0000
713.176575 89.803 0.0000
718.344543 89.811 0.0000
723.549988 89.819 0.0000
728.793152 89.827 0.0000
734.074280 89.835 0.0000
739.393677 89.843 0.0000
744.751648 89.850 0.0000
750.148438 89.857 0.0000
755.584351 89.864 0.0000
761.059631 89.870 0.0000
766.574585 89.876 0.0000
772.129517 89.881 0.0000
777.724670 89.887 0.0000
783.360413 89.892 0.0000
789.036987 89.898 0.0000
794.754700 89.903 0.0000
800.513794 89.908 0.0000
806.314636 89.912 0.0000
812.157532 89.916 0.0000
818.042786 89.919 0.0000
823.970642 89.923 0.0000
829.941467 89.926 0.0000
835.955566 89.929 0.0000
842.013245 89.933 0.0000
848.114807 89.937 0.0000
854.260620 89.942 0.0000
860.450928 89.947 0.0000
866.686096 89.952 0.0000
872.966431 89.957 0.0000
879.292297 89.962 0.0000
885.664001 89.967 0.0000
892.081909 89.972 0.0000
898.546326 89.977 0.0000
905.057556 89.982 0.0000
911.615967 89.987 0.0000
918.221924 89.993 0.0000
924.875732 89.999 0.0000
931.577759 90.004 0.0000
938.328369 90.009 0.0000
945.127869 90.014 0.0000
951.976685 90.021 0.0000
958.875122 90.030 0.0000
965.823547 90.040 0.0000
972.822327 90.050 0.0000
979.871826 90.060 0.0000
986.972351 90.070 0.0000
994.124390 90.081 0.0000
1001.328247 90.092 0.0000
1008.584290 90.105 0.0000
1015.892883 90.120 0.0000
1023.254456 90.135 0.0000
1030.669434 90.150 0.0000
1038.138062 90.165 0.0000
1045.660889 90.180 0.0000
1053.238159 90.195 0.0000
1060.870361 90.212 0.0000
1068.557861 90.233 0.0000
1076.301025 90.255 0.0000
1084.100342 90.277 0.0000
1091.956177 90.300 0.0000
1099.868896 90.322 0.0000
1107.838989 90.344 0.0000
1115.866821 90.368 0.0000
1123.952881 90.394 0.0000
1132.097534 90.424 0.0000
1140.301147 90.457 0.0000
1148.564209 90.489 0.0000
1156.887207 90.521 0.0000
1165.270508 90.552 0.0000
1173.714478 90.584 0.0000
1182.219727 90.619 0.0000
1190.786621 90.656 0.0000
1199.415527 90.693 0.0000
1208.106934 90.731 0.0000
1216.861328 90.768 0.0000
1225.679199 90.806 0.0000
1234.561035 90.842 0.0000
1243.507202 90.880 0.0000
1252.518188 90.922 0.0000
1261.594482 90.967 0.0000
1270.736572 91.013 0.0000
1279.944824 91.060 0.0000
1289.219849 91.106 0.0000
1298.562012 91.153 0.0000
1307.971924 91.200 0.0000
1317.450073 91.248 0.0000
1326.996826 91.297 0.0000
1336.612793 91.349 0.0000
1346.298462 91.401 0.0000
1356.054321 91.455 0.0000
1365.880859 91.508 0.0000
1375.778564 91.561 0.0000
1385.748047 91.613 0.0000
1395.789795 91.666 0.0000
1405.904297 91.718 0.0000
1416.092041 91.771 0.0000
1426.353638 91.823 0.0000
1436.689575 91.876 0.0000
1447.100464 91.928 0.0000
1457.586792 91.980 0.0000
1468.149048 92.032 0.0000
1478.787842 92.085 0.0000
1489.503784 92.136 0.0000
1500.297363 92.191 0.0000
1511.169189 92.252 0.0000
1522.119751 92.316 0.0000
1533.149658 92.380 0.0000
1544.259521 92.444 0.0000
1555.449829 92.509 0.0000
1566.721313 92.573 0.0000
1578.074463 92.635 0.0000
1589.509888 92.698 0.0000
1601.028076 92.767 0.0000
1612.629761 92.838 0.0000
1624.315552 92.911 0.0000
1636.086060 92.985 0.0000
1647.941772 93.059 0.0000
1659.883423 93.133 0.0000
1671.911621 93.206 0.0000
1684.026978 93.280 0.0000
1696.230103 93.357 0.0000
1708.521729 93.436 0.0000
1720.902344 93.519 0.0000
1733.372681 93.602 0.0000
1745.933472 93.686 0.0000
1758.585205 93.769 0.0000
1771.328613 93.852 0.0000
1784.164429 93.935 0.0000
1797.093262 94.020 0.0000
1810.115723 94.105 0.0000
1823.232544 94.193 0.0000
1836.444458 94.282 0.0000
1849.752075 94.370 0.0000
1863.156128 94.458 0.0000
1876.657349 94.546 0.0000
1890.256348 94.635 0.0000
1903.953979 94.726 0.0000
1917.750854 94.817 0.0000
1931.647705 94.910 0.0000
1945.645264 95.003 0.0000
1959.744263 95.097 0.0000
1973.945435 95.189 0.0000
1988.249512 95.282 0.0000
2002.657227 95.370 0.0000
2017.169312 95.450 0.0000
2031.786499 95.526 0.0000
2046.509644 95.603 0.0000
2061.339600 95.679 0.0000
2076.276855 95.756 0.0000
2091.322510 95.833 0.0000
2106.477051 95.910 0.0000
2121.741455 95.985 0.0000
2137.116455 96.061 0.0000
2152.602783 96.136 0.0000
2168.201416 96.211 0.0000
2183.913086 96.285 0.0000
2199.738525 96.361 0.0000
2215.678711 96.435 0.0000
2231.734375 96.509 0.0000
2247.906494 96.581 0.0000
2264.195801 96.653 0.0000
2280.603027 96.723 0.0000
2297.129150 96.795 0.0000
2313.775146 96.865 0.0000
2330.541748 96.936 0.0000
2347.429932 97.004 0.0000
2364.440430 97.068 0.0000
2381.574219 97.129 0.0000
2398.832031 97.184 0.0000
2416.214844 97.238 0.0000
2433.723633 97.293 0.0000
2451.359375 97.349 0.0000
2469.123047 97.404 0.0000
2487.015381 97.458 0.0000
2505.037354 97.508 0.0000
2523.189941 97.557 0.0000
2541.474121 97.603 0.0000
2559.890625 97.649 0.0000
2578.440674 97.694 0.0000
2597.125000 97.736 0.0000
2615.944824 97.781 0.0000
2634.901123 97.832 0.0000
2653.994629 97.875 0.0000
2673.226562 97.916 0.0000
2692.597900 97.956 0.0000
2712.109619 97.995 0.0000
2731.762695 98.034 0.0000
2751.558105 98.073 0.0000
2771.497070 98.114 0.0000
2791.580566 98.152 0.0000
2811.809570 98.182 0.0000
2832.185059 98.209 0.0000
2852.708252 98.234 0.0000
2873.380127 98.258 0.0000
2894.201904 98.283 0.0000
2915.174561 98.308 0.0000
2936.299072 98.333 0.0000
2957.576660 98.359 0.0000
2979.008545 98.384 0.0000
3000.595703 98.409 0.0000
3022.339355 98.434 0.0000
3044.240479 98.459 0.0000
3066.300293 98.484 0.0000
3088.520020 98.510 0.0000
3110.900635 98.535 0.0000
3133.443604 98.558 0.0000
3156.149902 98.577 0.0000
3179.020752 98.593 0.0000
3202.057129 98.604 0.0000
3225.260498 98.613 0.0000
3248.632080 98.623 0.0000
3272.173096 98.634 0.0000
3295.884521 98.645 0.0000
3319.767822 98.655 0.0000
3343.824219 98.662 0.0000
3368.054932 98.667 0.0000
3392.461182 98.667 0.0000
3417.044434 98.665 0.0000
3441.805664 98.664 0.0000
3466.746338 98.662 0.0000
3491.867920 98.662 0.0000
3517.171387 98.660 0.0000
3542.658203 98.654 0.0000
3568.329834 98.644 0.0000
3594.187500 98.629 0.0000
3620.232422 98.612 0.0000
3646.466064 98.595 0.0000
3672.889893 98.577 0.0000
3699.505127 98.562 0.0000
3726.313232 98.544 0.0000
3753.315674 98.522 0.0000
3780.513672 98.497 0.0000
3807.908936 98.470 0.0000
3835.502686 98.441 0.0000
3863.296387 98.413 0.0000
3891.291504 98.385 0.0000
3919.489502 98.358 0.0000
3947.891846 98.330 0.0000
3976.500000 98.300 0.0000
4005.315430 98.266 0.0000
4034.339600 98.228 0.0000
4063.573975 98.188 0.0000
4093.020264 98.146 0.0000
4122.680176 98.104 0.0000
4152.554688 98.063 0.0000
4182.645996 98.022 0.0000
4212.955078 97.979 0.0000
4243.483887 97.935 0.0000
4274.233887 97.884 0.0000
4305.206543 97.830 0.0000
4336.403809 97.774 0.0000
4367.827148 97.718 0.0000
4399.478027 97.662 0.0000
4431.358398 97.607 0.0000
4463.469727 97.552 0.0000
4495.813965 97.496 0.0000
4528.392578 97.434 0.0000
4561.207031 97.371 0.0000
4594.259277 97.308 0.0000
4627.551270 97.246 0.0000
4661.084473 97.183 0.0000
4694.860840 97.120 0.0000
4728.881836 97.056 0.0000
4763.149414 96.992 0.0000
4797.665039 96.925 0.0000
4832.430664 96.858 0.0000
4867.448242 96.790 0.0000
4902.719727 96.722 0.0000
4938.247070 96.653 0.0000
4974.031738 96.586 0.0000
5010.075684 96.524 0.0000
5046.380859 96.465 0.0000
5082.949219 96.408 0.0000
5119.782227 96.352 0.0000
5156.882324 96.295 0.0000
5194.250977 96.238 0.0000
5231.890625 96.181 0.0000
5269.803223 96.124 0.0000
5307.990234 96.067 0.0000
5346.454102 96.010 0.0000
5385.196777 95.954 0.0000
5424.220215 95.898 0.0000
5463.526367 95.841 0.0000
5503.117188 95.784 0.0000
5542.995117 95.728 0.0000
5583.162109 95.674 0.0000
5623.620117 95.624 0.0000
5664.371094 95.577 0.0000
5705.417480 95.531 0.0000
5746.761230 95.487 0.0000
5788.404785 95.442 0.0000
5830.350098 95.398 0.0000
5872.599121 95.353 0.0000
5915.154297 95.308 0.0000
5958.018066 95.264 0.0000
6001.192383 95.216 0.0000
6044.679688 95.154 0.0000
6088.481934 95.087 0.0000
6132.601562 95.021 0.0000
6177.041016 94.956 0.0000
6221.802246 94.889 0.0000
6266.888184 94.825 0.0000
6312.300781 94.765 0.0000
6358.042480 94.707 0.0000
6404.115234 94.650 0.0000
6450.521973 94.594 0.0000
6497.265137 94.538 0.0000
6544.347168 94.482 0.0000
6591.770020 94.426 0.0000
6639.536621 94.370 0.0000
6687.649414 94.310 0.0000
6736.110840 94.249 0.0000
6784.923340 94.184 0.0000
6834.089844 94.118 0.0000
6883.612305 94.052 0.0000
6933.493652 93.986 0.0000
6983.736816 93.921 0.0000
7034.343750 93.855 0.0000
7085.317383 93.786 0.0000
7136.660645 93.714 0.0000
7188.375977 93.635 0.0000
7240.465820 93.554 0.0000
7292.933105 93.475 0.0000
7345.780762 93.396 0.0000
7399.011230 93.317 0.0000
7452.627441 93.238 0.0000
7506.632324 93.162 0.0000
7561.028320 93.087 0.0000
7615.818848 93.014 0.0000
7671.006348 92.942 0.0000
7726.593750 92.869 0.0000
7782.583984 92.796 0.0000
7838.979980 92.724 0.0000
7895.784668 92.651 0.0000
7953.000977 92.578 0.0000
8010.631836 92.503 0.0000
8068.680176 92.422 0.0000
8127.148926 92.339 0.0000
8186.041504 92.257 0.0000
8245.361328 92.175 0.0000
8305.110352 92.093 0.0000
8365.292969 92.011 0.0000
8425.911133 91.929 0.0000
8486.968750 91.844 0.0000
8548.468750 91.754 0.0000
8610.414062 91.662 0.0000
8672.808594 91.568 0.0000
8735.655273 91.474 0.0000
8798.957031 91.381 0.0000
8862.717773 91.288 0.0000
8926.940430 91.193 0.0000
8991.628906 91.096 0.0000
9056.786133 90.995 0.0000
9122.415039 90.891 0.0000
9188.519531 90.784 0.0000
9255.103516 90.676 0.0000
9322.169922 90.571 0.0000
9389.722656 90.465 0.0000
9457.764648 90.358 0.0000
9526.299805 90.244 0.0000
9595.331055 90.120 0.0000
9664.862305 89.992 0.0000
9734.897461 89.866 0.0000
9805.440430 89.738 0.0000
9876.495117 89.612 0.0000
9948.064453 89.485 0.0000
10020.152344 89.360 0.0000
10092.762695 89.236 0.0000
10165.899414 89.114 0.0000
10239.565430 88.991 0.0000
10313.765625 88.869 0.0000
10388.503906 88.746 0.0000
10463.783203 88.625 0.0000
10539.608398 88.501 0.0000
10615.982422 88.369 0.0000
10692.910156 88.233 0.0000
10770.395508 88.092 0.0000
10848.442383 87.950 0.0000
10927.054688 87.808 0.0000
11006.236328 87.667 0.0000
11085.992188 87.526 0.0000
11166.326172 87.383 0.0000
11247.242188 87.231 0.0000
11328.744141 87.076 0.0000
11410.836914 86.918 0.0000
11493.524414 86.759 0.0000
11576.811523 86.599 0.0000
11660.702148 86.442 0.0000
11745.200195 86.288 0.0000
11830.310547 86.139 0.0000
11916.038086 85.996 0.0000
12002.386719 85.856 0.0000
12089.361328 85.716 0.0000
12176.965820 85.578 0.0000
12265.205078 85.439 0.0000
12354.083984 85.300 0.0000
12443.606445 85.161 0.0000
12533.778320 85.023 0.0000
12624.603516 84.885 0.0000
12716.086914 84.747 0.0000
12808.233398 84.608 0.0000
12901.046875 84.471 0.0000
12994.533203 84.333 0.0000
13088.697266 84.197 0.0000
13183.542969 84.064 0.0000
13279.076172 83.937 0.0000
13375.301758 83.821 0.0000
13472.224609 83.707 0.0000
13569.849609 83.592 0.0000
13668.182617 83.476 0.0000
13767.227539 83.361 0.0000
13866.990234 83.246 0.0000
13967.476562 83.135 0.0000
14068.690430 83.026 0.0000
14170.637695 82.923 0.0000
14273.324219 82.824 0.0000
14376.754883 82.724 0.0000
14480.934570 82.625 0.0000
14585.869141 82.526 0.0000
14691.564453 82.426 0.0000
14798.025391 82.330 0.0000
14905.257812 82.234 0.0000
15013.267578 82.119 0.0000
15122.059570 81.996 0.0000
15231.640625 81.864 0.0000
15342.015625 81.729 0.0000
15453.190430 81.595 0.0000
15565.170898 81.462 0.0000
15677.962891 81.335 0.0000
15791.572266 81.203 0.0000
15906.004883 81.056 0.0000
16021.266602 80.893 0.0000
16137.363281 80.702 0.0000
16254.300781 80.497 0.0000
16372.085938 80.286 0.0000
16490.724609 80.072 0.0000
16610.222656 79.868 0.0000
16730.587891 79.658 0.0000
16851.824219 79.442 0.0000
16973.939453 79.199 0.0000
17096.939453 78.904 0.0000
17220.830078 78.578 0.0000
17345.619141 78.235 0.0000
17471.312500 77.884 0.0000
17597.916016 77.542 0.0000
17725.437500 77.199 0.0000
17853.882812 76.871 0.0000
17983.259766 76.499 0.0000
18113.574219 76.006 0.0000
18244.832031 75.460 0.0000
18377.041016 74.923 0.0000
18510.208984 74.383 0.0000
18644.341797 73.857 0.0000
18779.447266 73.313 0.0000
18915.531250 72.734 0.0000
19052.601562 72.103 0.0000
19190.664062 71.382 0.0000
19329.726562 70.613 0.0000
19469.796875 69.839 0.0000
19610.882812 69.057 0.0000
19752.992188 68.231 0.0000
19896.130859 67.500 0.0000
