* Measurement data measured by REW V5.20.9
* Source: /Users/griff/Desktop/0 - REW Curves/Targets/Circumaural Targets/Other/Test/IEF FIX.txt
* Format: Comma/Tab/Space delimited data
* Dated: Aug 19, 2022 1:43:55 AM
* REW Settings:
*  C-weighting compensation: Off
*  Target level: 75.0 dB
* Note: Measurement imported from /Users/griff/Desktop/0 - REW Curves/Targets/Circumaural Targets/Other/Test/IEF FIX.txt Format: Comma/Tab/Space delimited data 957 values loaded, 20 Hz to 19,895 Hz log spaced
* Measurement: IEF FIX
* Smoothing: 1/48 octave
* Frequency Step: 96 ppo
* Start Frequency: 20.0 Hz
*
* Freq(Hz) SPL(dB) Phase(degrees)
19.999107 90.000 0.0000
20.144030 90.000 0.0000
20.290001 90.000 0.0000
20.437031 90.000 0.0000
20.585127 90.000 0.0000
20.734295 90.000 0.0000
20.884544 90.000 0.0000
21.035883 90.000 0.0000
21.188318 90.000 0.0000
21.341858 90.000 0.0000
21.496510 90.000 0.0000
21.652283 90.000 0.0000
21.809185 90.000 0.0000
21.967224 90.000 0.0000
22.126408 90.000 0.0000
22.286745 90.000 0.0000
22.448244 90.000 0.0000
22.610914 90.000 0.0000
22.774763 90.000 0.0000
22.939798 90.000 0.0000
23.106030 90.000 0.0000
23.273466 90.000 0.0000
23.442116 90.000 0.0000
23.611986 90.000 0.0000
23.783089 90.000 0.0000
23.955431 90.000 0.0000
24.129023 90.000 0.0000
24.303871 90.000 0.0000
24.479986 90.000 0.0000
24.657379 90.000 0.0000
24.836056 90.000 0.0000
25.016027 90.000 0.0000
25.197304 90.000 0.0000
25.379894 90.000 0.0000
25.563807 90.000 0.0000
25.749052 90.000 0.0000
25.935640 90.000 0.0000
26.123581 90.000 0.0000
26.312883 90.000 0.0000
26.503557 90.000 0.0000
26.695612 90.000 0.0000
26.889059 90.000 0.0000
27.083908 90.000 0.0000
27.280169 90.000 0.0000
27.477852 90.000 0.0000
27.676968 90.000 0.0000
27.877527 90.000 0.0000
28.079538 90.000 0.0000
28.283014 90.000 0.0000
28.487965 90.000 0.0000
28.694401 90.000 0.0000
28.902332 90.000 0.0000
29.111771 90.000 0.0000
29.322727 90.000 0.0000
29.535212 90.000 0.0000
29.749235 90.000 0.0000
29.964811 90.000 0.0000
30.181950 90.000 0.0000
30.400660 90.000 0.0000
30.620955 90.000 0.0000
30.842846 90.000 0.0000
31.066345 90.000 0.0000
31.291464 90.000 0.0000
31.518215 90.000 0.0000
31.746609 90.000 0.0000
31.976658 90.000 0.0000
32.208374 90.000 0.0000
32.441769 90.000 0.0000
32.676853 90.000 0.0000
32.913643 90.000 0.0000
33.152149 90.000 0.0000
33.392384 90.000 0.0000
33.634357 90.000 0.0000
33.878086 90.000 0.0000
34.123581 90.000 0.0000
34.370853 90.000 0.0000
34.619919 90.000 0.0000
34.870789 90.000 0.0000
35.123478 90.000 0.0000
35.377998 90.000 0.0000
35.634361 90.000 0.0000
35.892582 90.000 0.0000
36.152676 90.000 0.0000
36.414654 90.000 0.0000
36.678528 90.000 0.0000
36.944317 90.000 0.0000
37.212032 90.000 0.0000
37.481686 90.000 0.0000
37.753292 90.000 0.0000
38.026867 90.000 0.0000
38.302425 90.000 0.0000
38.579979 90.000 0.0000
38.859547 90.000 0.0000
39.141140 90.000 0.0000
39.424774 90.000 0.0000
39.710461 90.000 0.0000
39.998219 90.000 0.0000
40.288063 90.000 0.0000
40.580006 90.000 0.0000
40.874065 90.000 0.0000
41.170258 90.000 0.0000
41.468594 90.000 0.0000
41.769093 90.000 0.0000
42.071770 90.000 0.0000
42.376640 90.000 0.0000
42.683720 90.000 0.0000
42.993023 90.000 0.0000
43.304569 90.000 0.0000
43.618374 90.000 0.0000
43.934452 90.000 0.0000
44.252819 90.000 0.0000
44.573494 90.000 0.0000
44.896492 90.000 0.0000
45.221832 90.000 0.0000
45.549530 90.000 0.0000
45.879601 90.000 0.0000
46.212063 90.000 0.0000
46.546936 90.000 0.0000
46.884235 90.000 0.0000
47.223976 90.000 0.0000
47.566181 90.000 0.0000
47.910866 90.000 0.0000
48.258049 90.000 0.0000
48.607746 90.000 0.0000
48.959976 90.000 0.0000
49.314762 90.000 0.0000
49.672115 90.000 0.0000
50.032059 90.000 0.0000
50.394611 90.000 0.0000
50.759792 90.000 0.0000
51.127617 90.000 0.0000
51.498108 90.000 0.0000
51.871284 90.000 0.0000
52.247166 90.000 0.0000
52.625771 90.000 0.0000
53.007118 90.000 0.0000
53.391232 90.000 0.0000
53.778126 90.000 0.0000
54.167824 90.000 0.0000
54.560345 90.000 0.0000
54.955711 90.000 0.0000
55.353943 90.000 0.0000
55.755062 90.000 0.0000
56.159088 90.000 0.0000
56.566040 90.000 0.0000
56.975941 90.000 0.0000
57.388813 90.000 0.0000
57.804676 90.000 0.0000
58.223553 90.000 0.0000
58.645466 90.000 0.0000
59.070435 90.000 0.0000
59.498482 90.000 0.0000
59.929634 90.000 0.0000
60.363911 90.000 0.0000
60.801331 90.000 0.0000
61.241920 90.000 0.0000
61.685703 90.000 0.0000
62.132702 90.000 0.0000
62.582939 90.000 0.0000
63.036442 90.000 0.0000
63.493229 90.000 0.0000
63.953327 90.000 0.0000
64.416756 90.000 0.0000
64.883545 90.000 0.0000
65.353722 90.000 0.0000
65.827301 90.000 0.0000
66.304314 90.000 0.0000
66.784782 90.000 0.0000
67.268730 90.000 0.0000
67.756187 90.000 0.0000
68.247177 90.000 0.0000
68.741722 90.000 0.0000
69.239853 90.000 0.0000
69.741592 90.000 0.0000
70.246971 90.000 0.0000
70.756012 90.000 0.0000
71.268738 90.000 0.0000
71.785179 90.000 0.0000
72.305367 90.000 0.0000
72.829323 90.000 0.0000
73.357071 90.000 0.0000
73.888649 90.000 0.0000
74.424080 90.000 0.0000
74.963387 90.000 0.0000
75.506599 90.000 0.0000
76.053749 90.000 0.0000
76.604866 90.000 0.0000
77.159973 90.000 0.0000
77.719109 90.000 0.0000
78.282295 90.000 0.0000
78.849564 90.000 0.0000
79.420937 90.000 0.0000
79.996452 90.000 0.0000
80.576141 90.000 0.0000
81.160027 90.000 0.0000
81.748146 90.000 0.0000
82.340530 90.000 0.0000
82.937202 90.000 0.0000
83.538200 90.000 0.0000
84.143555 90.000 0.0000
84.753296 90.000 0.0000
85.367455 90.000 0.0000
85.986061 90.000 0.0000
86.609154 90.000 0.0000
87.236763 90.000 0.0000
87.868919 90.000 0.0000
88.505653 90.000 0.0000
89.147003 90.000 0.0000
89.792999 90.000 0.0000
90.443680 90.000 0.0000
91.099075 90.000 0.0000
91.759216 90.000 0.0000
92.424141 90.000 0.0000
93.093887 90.000 0.0000
93.768486 90.000 0.0000
94.447968 90.000 0.0000
95.132378 90.000 0.0000
95.821747 90.000 0.0000
96.516113 90.000 0.0000
97.215508 90.000 0.0000
97.919968 90.000 0.0000
98.629539 90.000 0.0000
99.344254 90.000 0.0000
100.064140 90.000 0.0000
100.789246 90.000 0.0000
101.519608 90.000 0.0000
102.255264 90.000 0.0000
102.996246 90.000 0.0000
103.742599 90.000 0.0000
104.494362 90.000 0.0000
105.251572 90.000 0.0000
106.014267 90.000 0.0000
106.782494 90.000 0.0000
107.556282 90.000 0.0000
108.335678 90.000 0.0000
109.120720 90.000 0.0000
109.911453 90.000 0.0000
110.707916 90.000 0.0000
111.510155 90.000 0.0000
112.318207 90.000 0.0000
113.132111 90.000 0.0000
113.951912 90.000 0.0000
114.777657 90.000 0.0000
115.609383 90.000 0.0000
116.447136 90.000 0.0000
117.290962 90.000 0.0000
118.140900 90.000 0.0000
118.996994 90.000 0.0000
119.859299 90.000 0.0000
120.727852 90.000 0.0000
121.602699 90.000 0.0000
122.483879 90.000 0.0000
123.371445 90.000 0.0000
124.265442 90.000 0.0000
125.165924 90.000 0.0000
126.072929 90.000 0.0000
126.986504 90.000 0.0000
127.906700 90.000 0.0000
128.833572 90.000 0.0000
129.767151 90.000 0.0000
130.707504 90.000 0.0000
131.654663 90.000 0.0000
132.608688 90.000 0.0000
133.569626 90.000 0.0000
134.537521 90.000 0.0000
135.512436 90.000 0.0000
136.494415 90.000 0.0000
137.483505 90.000 0.0000
138.479767 90.000 0.0000
139.483246 90.000 0.0000
140.494003 90.000 0.0000
141.512085 90.000 0.0000
142.537537 90.000 0.0000
143.570419 90.000 0.0000
144.610794 90.000 0.0000
145.658707 90.000 0.0000
146.714203 90.000 0.0000
147.777359 90.000 0.0000
148.848221 90.000 0.0000
149.926834 90.000 0.0000
151.013260 90.000 0.0000
152.107559 90.000 0.0000
153.209793 90.000 0.0000
154.320007 90.000 0.0000
155.438278 90.000 0.0000
156.564651 90.000 0.0000
157.699188 90.000 0.0000
158.841934 90.000 0.0000
159.992966 90.000 0.0000
161.152344 90.000 0.0000
162.320114 90.000 0.0000
163.496353 90.000 0.0000
164.681122 90.000 0.0000
165.874466 90.000 0.0000
167.076462 90.000 0.0000
168.287170 90.000 0.0000
169.506653 90.000 0.0000
170.734970 90.000 0.0000
171.972183 90.000 0.0000
173.218369 90.000 0.0000
174.473587 90.000 0.0000
175.737900 90.000 0.0000
177.011368 90.000 0.0000
178.294067 90.000 0.0000
179.586060 90.000 0.0000
180.887421 90.000 0.0000
182.198212 90.000 0.0000
183.518494 90.000 0.0000
184.848343 90.000 0.0000
186.187836 90.000 0.0000
187.537033 90.000 0.0000
188.896011 90.000 0.0000
190.264832 90.000 0.0000
191.643570 90.000 0.0000
193.032303 90.000 0.0000
194.431091 90.000 0.0000
195.840012 90.000 0.0000
197.259155 90.000 0.0000
198.688583 90.000 0.0000
200.128357 90.000 0.0000
201.578568 90.000 0.0000
203.039291 90.000 0.0000
204.510605 90.000 0.0000
205.992569 90.000 0.0000
207.485275 90.000 0.0000
208.988800 90.000 0.0000
210.503220 90.000 0.0000
212.028610 90.000 0.0000
213.565063 90.000 0.0000
215.112640 90.000 0.0000
216.671432 90.000 0.0000
218.241516 90.000 0.0000
219.822983 90.000 0.0000
221.415909 90.000 0.0000
223.020386 90.000 0.0000
224.636490 90.000 0.0000
226.264297 90.000 0.0000
227.903900 90.000 0.0000
229.555389 90.000 0.0000
231.218842 90.000 0.0000
232.894348 90.000 0.0000
234.582001 90.000 0.0000
236.281876 90.000 0.0000
237.994064 90.000 0.0000
239.718674 90.000 0.0000
241.455780 90.000 0.0000
243.205475 90.000 0.0000
244.967834 90.000 0.0000
246.742966 90.000 0.0000
248.530960 90.000 0.0000
250.331924 90.000 0.0000
252.145935 90.000 0.0000
253.973083 90.000 0.0000
255.813477 90.000 0.0000
257.667206 90.000 0.0000
259.534363 90.000 0.0000
261.415070 90.000 0.0000
263.309387 90.000 0.0000
265.217438 90.000 0.0000
267.139313 90.000 0.0000
269.075104 90.000 0.0000
271.024933 90.000 0.0000
272.988892 90.000 0.0000
274.967072 90.000 0.0000
276.959595 90.000 0.0000
278.966553 90.000 0.0000
280.988068 90.000 0.0000
283.024231 90.000 0.0000
285.075134 90.000 0.0000
287.140900 90.000 0.0000
289.221649 90.000 0.0000
291.317474 90.000 0.0000
293.428467 90.000 0.0000
295.554779 90.000 0.0000
297.696503 90.000 0.0000
299.853729 90.000 0.0000
302.026581 90.000 0.0000
304.215179 90.000 0.0000
306.419647 90.000 0.0000
308.640076 90.000 0.0000
310.876617 90.000 0.0000
313.129364 90.000 0.0000
315.398438 90.000 0.0000
317.683929 90.000 0.0000
319.985992 90.000 0.0000
322.304749 90.000 0.0000
324.640289 90.000 0.0000
326.992767 90.000 0.0000
329.362305 90.000 0.0000
331.748993 90.000 0.0000
334.152985 90.000 0.0000
336.574402 90.000 0.0000
339.013367 90.000 0.0000
341.470001 90.000 0.0000
343.944427 90.000 0.0000
346.436798 90.000 0.0000
348.947235 90.000 0.0000
351.475861 90.000 0.0000
354.022797 90.000 0.0000
356.588196 90.000 0.0000
359.172180 90.000 0.0000
361.774902 90.000 0.0000
364.396484 90.000 0.0000
367.037048 90.000 0.0000
369.696747 90.000 0.0000
372.375732 90.000 0.0000
375.074127 90.000 0.0000
377.792084 90.000 0.0000
380.529724 90.000 0.0000
383.287201 90.000 0.0000
386.064667 90.000 0.0000
388.862244 90.000 0.0000
391.680115 90.000 0.0000
394.518402 90.000 0.0000
397.377258 90.000 0.0000
400.256805 90.000 0.0000
403.157227 90.000 0.0000
406.078674 90.000 0.0000
409.021301 90.000 0.0000
411.985229 90.000 0.0000
414.970642 90.000 0.0000
417.977692 90.000 0.0000
421.006531 90.000 0.0000
424.057312 90.000 0.0000
427.130219 90.000 0.0000
430.225372 90.000 0.0000
433.342957 90.000 0.0000
436.483124 90.000 0.0000
439.646057 90.000 0.0000
442.831909 90.000 0.0000
446.040863 90.000 0.0000
449.273071 90.000 0.0000
452.528687 90.000 0.0000
455.807892 90.000 0.0000
459.110870 90.000 0.0000
462.437775 90.000 0.0000
465.788788 90.000 0.0000
469.164093 90.000 0.0000
472.563843 90.000 0.0000
475.988220 90.000 0.0000
479.437439 90.000 0.0000
482.911652 90.000 0.0000
486.411041 90.000 0.0000
489.935791 90.000 0.0000
493.486053 90.000 0.0000
497.062042 90.000 0.0000
500.663971 90.000 0.0000
504.291992 90.000 0.0000
507.946289 90.000 0.0000
511.627075 90.000 0.0000
515.334534 90.000 0.0000
519.068848 90.000 0.0000
522.830261 90.000 0.0000
526.618896 90.000 0.0000
530.434998 90.000 0.0000
534.278748 90.000 0.0000
538.150330 90.000 0.0000
542.049988 90.000 0.0000
545.977905 90.000 0.0000
549.934265 90.000 0.0000
553.919312 90.000 0.0000
557.933228 90.000 0.0000
561.976257 90.000 0.0000
566.048584 90.000 0.0000
570.150391 90.000 0.0000
574.281921 90.000 0.0000
578.443420 90.000 0.0000
582.635071 90.000 0.0000
586.857056 90.000 0.0000
591.109680 90.000 0.0000
595.393127 90.000 0.0000
599.707581 90.000 0.0000
604.053284 90.000 0.0000
608.430481 90.000 0.0000
612.839417 90.000 0.0000
617.280273 90.000 0.0000
621.753357 90.000 0.0000
626.258850 90.000 0.0000
630.796997 90.000 0.0000
635.368042 90.000 0.0000
639.972168 90.000 0.0000
644.609680 90.000 0.0000
649.280762 90.000 0.0000
653.985718 90.000 0.0000
658.724792 90.000 0.0000
663.498169 90.000 0.0000
668.306152 90.000 0.0000
673.148987 90.000 0.0000
678.026917 90.000 0.0000
682.940186 90.000 0.0000
687.889038 90.000 0.0000
692.873779 90.000 0.0000
697.894653 90.000 0.0000
702.951904 90.000 0.0000
708.045776 90.000 0.0000
713.176575 90.000 0.0000
718.344543 90.000 0.0000
723.549988 90.000 0.0000
728.793152 90.000 0.0000
734.074280 90.000 0.0000
739.393677 90.000 0.0000
744.751648 90.000 0.0000
750.148438 90.000 0.0000
755.584351 90.000 0.0000
761.059631 90.000 0.0000
766.574585 90.000 0.0000
772.129517 90.000 0.0000
777.724670 90.000 0.0000
783.360413 90.000 0.0000
789.036987 90.000 0.0000
794.754700 90.000 0.0000
800.513794 90.000 0.0000
806.314636 90.000 0.0000
812.157532 90.000 0.0000
818.042786 90.000 0.0000
823.970642 90.000 0.0000
829.941467 90.000 0.0000
835.955566 90.000 0.0000
842.013245 90.000 0.0000
848.114807 90.000 0.0000
854.260620 90.000 0.0000
860.450928 90.000 0.0000
866.686096 90.000 0.0000
872.966431 90.000 0.0000
879.292297 90.000 0.0000
885.664001 90.000 0.0000
892.081909 90.000 0.0000
898.546326 90.001 0.0000
905.057556 90.002 0.0000
911.615967 90.003 0.0000
918.221924 90.004 0.0000
924.875732 90.006 0.0000
931.577759 90.008 0.0000
938.328369 90.011 0.0001
945.127869 90.012 -0.1423
951.976685 90.018 -0.1420
958.875122 90.023 -0.1401
965.823547 90.029 -0.1385
972.822327 90.034 -0.1370
979.871826 90.040 -0.1354
986.972351 90.045 -0.1338
994.124390 90.051 -0.1313
1001.328247 90.058 -0.0003
1008.584290 90.071 0.0001
1015.892883 90.086 0.0000
1023.254456 90.101 0.0000
1030.669434 90.116 0.0000
1038.138062 90.131 0.0000
1045.660889 90.146 0.0000
1053.238159 90.161 0.0000
1060.870361 90.178 0.0000
1068.557861 90.199 0.0000
1076.301025 90.221 0.0000
1084.100342 90.243 0.0000
1091.956177 90.266 0.0000
1099.868896 90.288 0.0000
1107.838989 90.310 0.0000
1115.866821 90.334 0.0000
1123.952881 90.360 0.0000
1132.097534 90.390 0.0000
1140.301147 90.423 0.0000
1148.564209 90.455 0.0000
1156.887207 90.487 0.0000
1165.270508 90.518 0.0000
1173.714478 90.550 0.0000
1182.219727 90.585 0.0000
1190.786621 90.622 0.0000
1199.415527 90.659 0.0000
1208.106934 90.697 0.0000
1216.861328 90.734 0.0000
1225.679199 90.772 0.0000
1234.561035 90.808 0.0000
1243.507202 90.846 0.0000
1252.518188 90.888 0.0000
1261.594482 90.933 0.0000
1270.736572 90.979 0.0000
1279.944824 91.026 0.0000
1289.219849 91.072 0.0000
1298.562012 91.119 0.0000
1307.971924 91.166 0.0000
1317.450073 91.214 0.0000
1326.996826 91.263 0.0000
1336.612793 91.315 0.0000
1346.298462 91.367 0.0000
1356.054321 91.421 0.0000
1365.880859 91.474 0.0000
1375.778564 91.527 0.0000
1385.748047 91.579 0.0000
1395.789795 91.632 0.0000
1405.904297 91.684 0.0000
1416.092041 91.737 0.0000
1426.353638 91.789 0.0000
1436.689575 91.842 0.0000
1447.100464 91.894 0.0000
1457.586792 91.946 0.0000
1468.149048 91.998 0.0000
1478.787842 92.051 0.0000
1489.503784 92.102 0.0000
1500.297363 92.157 0.0000
1511.169189 92.218 0.0000
1522.119751 92.282 0.0000
1533.149658 92.346 0.0000
1544.259521 92.410 0.0000
1555.449829 92.475 0.0000
1566.721313 92.539 0.0000
1578.074463 92.601 0.0000
1589.509888 92.664 0.0000
1601.028076 92.733 0.0000
1612.629761 92.804 0.0000
1624.315552 92.877 0.0000
1636.086060 92.951 0.0000
1647.941772 93.025 0.0000
1659.883423 93.099 0.0000
1671.911621 93.172 0.0000
1684.026978 93.246 0.0000
1696.230103 93.323 0.0000
1708.521729 93.402 0.0000
1720.902344 93.485 0.0000
1733.372681 93.568 0.0000
1745.933472 93.652 0.0000
1758.585205 93.735 0.0000
1771.328613 93.818 0.0000
1784.164429 93.901 0.0000
1797.093262 93.986 0.0000
1810.115723 94.071 0.0000
1823.232544 94.159 0.0000
1836.444458 94.248 0.0000
1849.752075 94.336 0.0000
1863.156128 94.424 0.0000
1876.657349 94.512 0.0000
1890.256348 94.601 0.0000
1903.953979 94.692 0.0000
1917.750854 94.783 0.0000
1931.647705 94.876 0.0000
1945.645264 94.969 0.0000
1959.744263 95.063 0.0000
1973.945435 95.155 0.0000
1988.249512 95.248 0.0000
2002.657227 95.336 0.0000
2017.169312 95.416 0.0000
2031.786499 95.492 0.0000
2046.509644 95.569 0.0000
2061.339600 95.645 0.0000
2076.276855 95.722 0.0000
2091.322510 95.799 0.0000
2106.477051 95.876 0.0000
2121.741455 95.951 0.0000
2137.116455 96.027 0.0000
2152.602783 96.102 0.0000
2168.201416 96.177 0.0000
2183.913086 96.251 0.0000
2199.738525 96.327 0.0000
2215.678711 96.401 0.0000
2231.734375 96.475 0.0000
2247.906494 96.547 0.0000
2264.195801 96.619 0.0000
2280.603027 96.689 0.0000
2297.129150 96.761 0.0000
2313.775146 96.831 0.0000
2330.541748 96.902 0.0000
2347.429932 96.970 0.0000
2364.440430 97.034 0.0000
2381.574219 97.095 0.0000
2398.832031 97.150 0.0000
2416.214844 97.204 0.0000
2433.723633 97.259 0.0000
2451.359375 97.315 0.0000
2469.123047 97.370 0.0000
2487.015381 97.424 0.0000
2505.037354 97.474 0.0000
2523.189941 97.523 0.0000
2541.474121 97.569 0.0000
2559.890625 97.615 0.0000
2578.440674 97.660 0.0000
2597.125000 97.702 0.0000
2615.944824 97.747 0.0000
2634.901123 97.798 0.0000
2653.994629 97.841 0.0000
2673.226562 97.882 0.0000
2692.597900 97.922 0.0000
2712.109619 97.961 0.0000
2731.762695 98.000 0.0000
2751.558105 98.039 0.0000
2771.497070 98.080 0.0000
2791.580566 98.118 0.0000
2811.809570 98.148 0.0000
2832.185059 98.175 0.0000
2852.708252 98.200 0.0000
2873.380127 98.224 0.0000
2894.201904 98.249 0.0000
2915.174561 98.274 0.0000
2936.299072 98.299 0.0000
2957.576660 98.325 0.0000
2979.008545 98.350 0.0000
3000.595703 98.375 0.0000
3022.339355 98.400 0.0000
3044.240479 98.425 0.0000
3066.300293 98.450 0.0000
3088.520020 98.476 0.0000
3110.900635 98.501 0.0000
3133.443604 98.524 0.0000
3156.149902 98.543 0.0000
3179.020752 98.559 0.0000
3202.057129 98.570 0.0000
3225.260498 98.579 0.0000
3248.632080 98.589 0.0000
3272.173096 98.600 0.0000
3295.884521 98.611 0.0000
3319.767822 98.621 0.0000
3343.824219 98.628 0.0000
3368.054932 98.633 0.0000
3392.461182 98.633 0.0000
3417.044434 98.631 0.0000
3441.805664 98.630 0.0000
3466.746338 98.628 0.0000
3491.867920 98.628 0.0000
3517.171387 98.626 0.0000
3542.658203 98.620 0.0000
3568.329834 98.610 0.0000
3594.187500 98.595 0.0000
3620.232422 98.578 0.0000
3646.466064 98.561 0.0000
3672.889893 98.543 0.0000
3699.505127 98.528 0.0000
3726.313232 98.510 0.0000
3753.315674 98.488 0.0000
3780.513672 98.463 0.0000
3807.908936 98.436 0.0000
3835.502686 98.407 0.0000
3863.296387 98.379 0.0000
3891.291504 98.351 0.0000
3919.489502 98.324 0.0000
3947.891846 98.296 0.0000
3976.500000 98.266 0.0000
4005.315430 98.232 0.0000
4034.339600 98.194 0.0000
4063.573975 98.154 0.0000
4093.020264 98.112 0.0000
4122.680176 98.070 0.0000
4152.554688 98.029 0.0000
4182.645996 97.988 0.0000
4212.955078 97.945 0.0000
4243.483887 97.901 0.0000
4274.233887 97.850 0.0000
4305.206543 97.796 0.0000
4336.403809 97.740 0.0000
4367.827148 97.684 0.0000
4399.478027 97.628 0.0000
4431.358398 97.573 0.0000
4463.469727 97.518 0.0000
4495.813965 97.462 0.0000
4528.392578 97.400 0.0000
4561.207031 97.337 0.0000
4594.259277 97.274 0.0000
4627.551270 97.212 0.0000
4661.084473 97.149 0.0000
4694.860840 97.086 0.0000
4728.881836 97.022 0.0000
4763.149414 96.958 0.0000
4797.665039 96.891 0.0000
4832.430664 96.824 0.0000
4867.448242 96.756 0.0000
4902.719727 96.688 0.0000
4938.247070 96.619 0.0000
4974.031738 96.552 0.0000
5010.075684 96.490 0.0000
5046.380859 96.431 0.0000
5082.949219 96.374 0.0000
5119.782227 96.318 0.0000
5156.882324 96.261 0.0000
5194.250977 96.204 0.0000
5231.890625 96.147 0.0000
5269.803223 96.090 0.0000
5307.990234 96.033 0.0000
5346.454102 95.976 0.0000
5385.196777 95.920 0.0000
5424.220215 95.864 0.0000
5463.526367 95.807 0.0000
5503.117188 95.750 0.0000
5542.995117 95.694 0.0000
5583.162109 95.640 0.0000
5623.620117 95.590 0.0000
5664.371094 95.543 0.0000
5705.417480 95.497 0.0000
5746.761230 95.453 0.0000
5788.404785 95.408 0.0000
5830.350098 95.364 0.0000
5872.599121 95.319 0.0000
5915.154297 95.274 0.0000
5958.018066 95.230 0.0000
6001.192383 95.182 0.0000
6044.679688 95.120 0.0000
6088.481934 95.053 0.0000
6132.601562 94.987 0.0000
6177.041016 94.922 0.0000
6221.802246 94.855 0.0000
6266.888184 94.791 0.0000
6312.300781 94.731 0.0000
6358.042480 94.673 0.0000
6404.115234 94.616 0.0000
6450.521973 94.560 0.0000
6497.265137 94.504 0.0000
6544.347168 94.448 0.0000
6591.770020 94.392 0.0000
6639.536621 94.336 0.0000
6687.649414 94.276 0.0000
6736.110840 94.215 0.0000
6784.923340 94.150 0.0000
6834.089844 94.084 0.0000
6883.612305 94.018 0.0000
6933.493652 93.952 0.0000
6983.736816 93.887 0.0000
7034.343750 93.821 0.0000
7085.317383 93.752 0.0000
7136.660645 93.680 0.0000
7188.375977 93.601 0.0000
7240.465820 93.520 0.0000
7292.933105 93.441 0.0000
7345.780762 93.362 0.0000
7399.011230 93.283 0.0000
7452.627441 93.204 0.0000
7506.632324 93.128 0.0000
7561.028320 93.053 0.0000
7615.818848 92.980 0.0000
7671.006348 92.908 0.0000
7726.593750 92.835 0.0000
7782.583984 92.762 0.0000
7838.979980 92.690 0.0000
7895.784668 92.617 0.0000
7953.000977 92.544 0.0000
8010.631836 92.469 0.0000
8068.680176 92.388 0.0000
8127.148926 92.305 0.0000
8186.041504 92.223 0.0000
8245.361328 92.141 0.0000
8305.110352 92.059 0.0000
8365.292969 91.977 0.0000
8425.911133 91.895 0.0000
8486.968750 91.810 0.0000
8548.468750 91.720 0.0000
8610.414062 91.628 0.0000
8672.808594 91.534 0.0000
8735.655273 91.440 0.0000
8798.957031 91.347 0.0000
8862.717773 91.254 0.0000
8926.940430 91.159 0.0000
8991.628906 91.062 0.0000
9056.786133 90.961 0.0000
9122.415039 90.857 0.0000
9188.519531 90.750 0.0000
9255.103516 90.643 0.0000
9322.169922 90.537 0.0000
9389.722656 90.432 0.0000
9457.764648 90.325 0.0000
9526.299805 90.212 0.0000
9595.331055 90.088 0.0000
9664.862305 89.960 0.0000
9734.897461 89.834 0.0000
9805.440430 89.706 0.0000
9876.495117 89.580 0.0000
9948.064453 89.453 0.0000
10020.152344 89.328 0.0000
10092.762695 89.204 0.0000
10165.899414 89.082 0.0000
10239.565430 88.959 0.0000
10313.765625 88.837 0.0000
10388.503906 88.714 0.0000
10463.783203 88.593 0.0000
10539.608398 88.469 0.0000
10615.982422 88.337 0.0000
10692.910156 88.201 0.0000
10770.395508 88.060 0.0000
10848.442383 87.918 0.0000
10927.054688 87.776 0.0000
11006.236328 87.635 0.0000
11085.992188 87.494 0.0000
11166.326172 87.351 0.0000
11247.242188 87.199 0.0000
11328.744141 87.044 0.0000
11410.836914 86.886 0.0000
11493.524414 86.727 0.0000
11576.811523 86.567 0.0000
11660.702148 86.410 0.0000
11745.200195 86.256 0.0000
11830.310547 86.107 0.0000
11916.038086 85.964 0.0000
12002.386719 85.824 0.0000
12089.361328 85.684 0.0000
12176.965820 85.546 0.0000
12265.205078 85.407 0.0000
12354.083984 85.268 0.0000
12443.606445 85.129 0.0000
12533.778320 84.991 0.0000
12624.603516 84.853 0.0000
12716.086914 84.715 0.0000
12808.233398 84.576 0.0000
12901.046875 84.439 0.0000
12994.533203 84.301 0.0000
13088.697266 84.165 0.0000
13183.542969 84.032 0.0000
13279.076172 83.905 0.0000
13375.301758 83.789 0.0000
13472.224609 83.675 0.0000
13569.849609 83.560 0.0000
13668.182617 83.444 0.0000
13767.227539 83.329 0.0000
13866.990234 83.214 0.0000
13967.476562 83.103 0.0000
14068.690430 82.993 0.0000
14170.637695 82.890 0.0000
14273.324219 82.791 0.0000
14376.754883 82.691 0.0000
14480.934570 82.592 0.0000
14585.869141 82.493 0.0000
14691.564453 82.393 0.0000
14798.025391 82.296 0.0000
14905.257812 82.201 0.0000
15013.267578 82.087 0.0000
15122.059570 81.964 0.0000
15231.640625 81.832 0.0000
15342.015625 81.697 0.0000
15453.190430 81.563 0.0000
15565.170898 81.430 0.0000
15677.962891 81.303 0.0000
15791.572266 81.171 0.0000
15906.004883 81.024 0.0000
16021.266602 80.861 0.0000
16137.363281 80.670 0.0000
16254.300781 80.465 0.0000
16372.085938 80.254 0.0000
16490.724609 80.040 0.0000
16610.222656 79.836 0.0000
16730.587891 79.626 0.0000
16851.824219 79.410 0.0000
16973.939453 79.167 0.0000
17096.939453 78.873 0.0000
17220.830078 78.548 0.0000
17345.619141 78.205 0.0000
17471.312500 77.854 0.0000
17597.916016 77.512 0.0000
17725.437500 77.169 0.0000
17853.882812 76.841 0.0000
17983.259766 76.469 0.0000
18113.574219 75.978 0.0000
18244.832031 75.432 0.0000
18377.041016 74.895 0.0000
18510.208984 74.355 0.0000
18644.341797 73.829 0.0000
18779.447266 73.285 0.0000
18915.531250 72.706 0.0000
19052.601562 72.075 0.0000
19190.664062 71.356 0.0000
19329.726562 70.587 0.0000
19469.796875 69.813 0.0000
19610.882812 69.031 0.0000
19752.992188 68.185 0.0000
19896.130859 68.185 0.0000