* Exported with UsyTrace, available at https://usyless.github.io/trace
* Freq(Hz)	SPL(dB)
20.000000	59.849095
20.290907	59.849095
20.586045	59.844160
20.885476	59.791355
21.189262	59.819303
21.497467	59.842001
21.810155	59.841251
22.127391	59.799697
22.449241	59.789430
22.775773	59.812190
23.107054	59.798808
23.443154	59.810791
23.784142	59.822948
24.130091	59.835282
24.481071	59.847796
24.837156	59.851321
25.198421	59.853836
25.564940	59.856389
25.936791	59.858978
26.314050	59.861605
26.696797	59.864270
27.085111	59.866975
27.479073	59.869718
27.878765	59.872501
28.284271	59.875325
28.695675	59.878190
29.113064	59.881097
29.536523	59.884045
29.966142	59.887037
30.402009	59.890072
30.844217	59.893152
31.292856	59.896276
31.748021	59.899446
32.209807	59.902661
32.678309	59.905924
33.153626	59.909234
33.635857	59.910312
34.125101	59.911242
34.621462	59.912185
35.125043	59.913142
35.635949	59.914113
36.154286	59.915098
36.680162	59.916097
37.213687	59.917111
37.754973	59.918140
38.304131	59.919183
38.861278	59.920242
39.426528	59.921316
40.000000	59.922406
40.581813	59.923511
41.172089	59.924633
41.770951	59.925771
42.378524	59.926926
42.994934	59.928097
43.620309	59.929285
44.254781	59.930491
44.898482	59.931714
45.551545	59.932955
46.214108	59.934214
46.886308	59.935492
47.568285	59.936788
48.260181	59.938102
48.962142	59.939436
49.674312	59.940790
50.396842	59.942163
51.129881	59.943556
51.873582	59.944969
52.628101	59.946403
53.393594	59.947857
54.170222	59.949333
54.958146	59.950830
55.757531	59.952349
56.568542	59.953891
57.391351	59.955454
58.226127	59.957040
59.073046	59.958650
59.932283	59.960283
60.804018	59.961939
61.688433	59.963620
62.585712	59.965325
63.496042	59.967055
64.419613	59.968810
65.356618	59.970399
66.307252	59.971758
67.271713	59.973137
68.250203	59.974535
69.242925	59.975954
70.250086	59.977394
71.271897	59.978854
72.308571	59.980336
73.360323	59.981840
74.427374	59.983365
75.509945	59.984912
76.608262	59.986482
77.722555	59.988075
78.853056	59.989691
80.000000	59.991330
81.163627	59.992994
82.344179	59.994681
83.541903	59.996393
84.757048	59.998130
85.989867	59.999892
87.240619	60.001680
88.509563	60.003494
89.796964	60.005334
91.103091	60.007201
92.428216	60.009095
93.772615	60.011017
95.136569	60.012966
96.520362	60.014944
97.924283	60.016951
99.348625	60.018987
100.793684	60.021053
102.259762	60.023148
103.747164	60.025274
105.256202	60.027431
106.787188	60.029620
108.340444	60.024565
109.916292	60.016939
111.515061	60.009201
113.137085	60.001351
114.782702	59.993387
116.452255	59.985308
118.146092	59.977110
119.864566	59.968989
121.608036	59.962156
123.376866	59.955224
125.171424	59.948191
126.992084	59.941056
128.839227	59.933818
130.713236	59.926473
132.614504	59.919023
134.543426	59.911463
136.500406	59.896289
138.485850	59.878195
140.500173	59.859839
142.543795	59.841215
144.617142	59.822320
146.720647	59.803151
148.854748	59.789757
151.019890	59.793779
153.216525	59.797859
155.445111	59.801998
157.706112	59.806197
160.000000	59.810457
162.327254	59.814780
164.688358	59.819165
167.083805	59.823614
169.514095	59.828128
171.979734	59.832707
174.481237	59.837353
177.019125	59.842067
179.593928	59.846849
182.206182	59.850478
184.856431	59.853090
187.545230	59.855740
190.273138	59.858429
193.040725	59.861156
195.848567	59.863924
198.697250	59.866731
201.587368	59.869580
204.519524	59.872470
207.494329	59.875402
210.512403	59.878377
213.574377	59.881394
216.680888	59.884456
219.832584	59.887563
223.030122	59.890714
226.274170	59.893912
229.565404	59.897155
232.904509	59.900446
236.292183	59.903785
239.729132	59.907173
243.216073	59.913729
246.753732	59.926650
250.342848	59.939758
253.984168	59.953058
257.678453	59.966550
261.426473	59.978133
265.229008	59.989215
269.086853	60.000457
273.000811	60.011863
276.971700	60.023435
281.000346	60.046821
285.087590	60.086504
289.234284	60.118810
293.441294	60.150687
297.709496	60.099400
302.039780	60.138105
306.433050	60.177372
310.890221	60.217211
315.412224	60.257629
320.000000	60.292250
324.654507	60.324015
329.376716	60.361564
334.167610	60.397291
339.028190	60.419284
343.959469	60.441596
348.962474	60.464233
354.038251	60.487200
359.187855	60.510500
364.412363	60.532960
369.712863	60.555601
375.090460	60.577947
380.546277	60.598415
386.081450	60.619180
391.697134	60.640248
397.394500	60.661622
403.174736	60.683307
409.039048	60.707314
414.988657	60.733655
421.024807	60.756160
427.148753	60.763729
433.361775	60.771407
439.665167	60.779198
446.060244	60.787101
452.548340	60.795120
459.130807	60.803255
465.809019	60.811508
472.584367	60.810417
479.458265	60.802808
486.432146	60.795087
493.507464	60.787254
500.685695	60.779308
507.968337	60.771246
515.356906	60.763066
522.852945	60.754768
530.458016	60.747569
538.173706	60.740303
546.001623	60.732931
553.943399	60.725451
562.000691	60.717863
570.175180	60.710164
578.468569	60.702354
586.882588	60.694430
595.418991	60.668889
604.079560	60.642372
612.866100	60.612459
621.780442	60.580683
630.824447	60.563503
640.000000	60.550500
649.309014	60.537308
658.753431	60.523924
668.335221	60.502585
678.056380	60.451245
687.918938	60.425075
697.924949	60.398524
708.076501	60.383932
718.375711	60.372849
728.824726	60.361605
739.425726	60.350197
750.180921	60.338624
761.092554	60.322344
772.162900	60.299852
783.394268	60.277033
794.789000	60.264791
806.349472	60.255741
818.078095	60.246559
829.977315	60.237243
842.049613	60.227792
854.297507	60.218203
866.723550	60.218696
879.330334	60.244953
892.120489	60.271592
905.096680	60.232245
918.261614	60.229481
931.618037	60.268321
945.168733	60.307727
958.916529	60.347706
972.864291	60.388266
987.014928	60.439780
1001.371391	60.512616
1015.936673	60.565503
1030.713812	60.649930
1045.705890	60.741053
1060.916032	60.833501
1076.347412	60.927293
1092.003245	61.017814
1107.886798	61.097000
1124.001383	61.206353
1140.350359	61.322357
1156.937137	61.431328
1173.765175	61.541885
1190.837983	61.654049
1208.159120	61.753169
1225.732199	61.862538
1243.560885	61.971930
1261.648894	62.080179
1280.000000	62.179515
1298.618029	62.279392
1317.506863	62.380722
1336.670442	62.483526
1356.112761	62.567780
1375.837875	62.668160
1395.849898	62.766160
1416.153002	62.887429
1436.751422	62.997215
1457.649452	63.108599
1478.851452	63.221602
1500.361842	63.303095
1522.185107	63.412504
1544.325799	63.512534
1566.788535	63.653549
1589.577999	63.778581
1612.698944	63.905432
1636.156190	64.034128
1659.954630	64.129027
1684.099226	64.281625
1708.595013	64.408061
1733.447100	64.548732
1758.660669	64.725892
1784.240977	64.905630
1810.193360	65.026624
1836.523229	65.231825
1863.236074	65.390185
1890.337467	65.583473
1917.833058	65.808742
1945.728583	66.037288
1974.029857	66.204720
2002.742782	66.418363
2031.873347	66.717545
2061.427625	67.007630
2091.411780	67.260716
2121.832065	67.504132
2152.694823	67.698191
2184.006490	68.004980
2215.773596	68.377063
2248.002765	68.590007
2280.700718	68.846318
2313.874274	69.101298
2347.530351	69.417954
2381.675966	69.651773
2416.318240	69.871856
2451.464399	70.089227
2487.121769	70.303786
2523.297789	70.530109
2560.000000	70.729801
2597.236057	70.843425
2635.013726	71.001778
2673.340883	71.092376
2712.225522	71.201221
2751.675750	71.311650
2791.699796	71.423685
2832.306004	71.525504
2873.502844	71.589506
2915.298905	71.642302
2957.702904	71.695113
3000.723683	71.731618
3044.370214	71.669425
3088.651599	71.606327
3133.577071	71.542311
3179.155999	71.551464
3225.397888	71.423810
3272.312380	71.310881
3319.909260	71.152532
3368.198452	70.978783
3417.190027	70.800954
3466.894200	70.620539
3517.321337	70.519075
3568.481954	70.300339
3620.386720	70.141997
3673.046457	69.901142
3726.472148	69.636606
3780.674934	69.466301
3835.666117	69.267055
3891.457165	69.048365
3948.059713	68.834968
4005.485564	68.608703
4063.746693	68.392267
4122.855250	68.233798
4182.823560	68.075454
4243.664130	67.911661
4305.389646	67.710121
4368.012981	67.505650
4431.547192	67.321268
4496.005531	67.162899
4561.401437	67.004554
4627.748549	66.839376
4695.060701	66.662797
4763.351932	66.483650
4832.636481	66.339535
4902.928797	66.212734
4974.243539	66.054357
5046.595577	65.907877
5120.000000	65.786309
5194.472115	65.662973
5270.027452	65.537843
5346.681766	65.443634
5424.451043	65.343834
5503.351500	65.247635
5583.399591	65.155949
5664.612008	65.085543
5747.005687	65.014113
5830.597810	64.941644
5915.405808	64.868121
6001.447367	64.824515
6088.740429	64.787694
6177.303198	64.756066
6267.154142	64.754296
6358.311998	64.790036
6450.795775	64.826296
6544.624761	64.863084
6639.818520	64.900406
6736.396904	64.938909
6834.380053	64.978632
6933.788400	65.018083
7034.642675	65.075333
7136.963909	65.115516
7240.773439	65.137654
7346.092914	65.160114
7452.944296	65.182900
7561.349867	65.206018
7671.332234	65.210504
7782.914330	65.178881
7896.119426	65.137867
8010.971128	65.049635
8127.493386	64.876011
8245.710500	64.699862
8365.647121	64.521150
8487.328260	64.359893
8610.779292	64.201512
8736.025961	63.908440
8863.094385	63.618388
8992.011061	63.387426
9122.802874	63.182439
9255.497097	62.926020
9390.121402	62.612211
9526.703863	62.293838
9665.272962	62.036208
9805.857594	61.750107
9948.487077	61.414068
10093.191154	61.032027
10240.000000	60.829704
10388.944230	60.573351
10540.054903	60.349921
10693.363532	59.914577
10848.902086	59.623115
11006.703001	59.336315
11166.799182	59.061145
11329.224017	58.624615
11494.011375	58.356244
11661.195620	58.039443
11830.811616	57.662096
12002.894734	57.299641
12177.480858	57.089297
12354.606395	56.801799
12534.308283	56.591308
12716.623996	56.365186
12901.591551	56.156339
13089.249521	56.047582
13279.637040	56.007163
13472.793808	55.967562
13668.760107	55.927854
13867.576801	56.039565
14069.285350	56.162241
14273.927818	56.286701
14481.546879	56.388560
14692.185828	56.497913
14905.888592	56.625141
15122.699734	56.715962
15342.664467	56.786378
15565.828661	56.857818
15792.238852	56.930297
16021.942256	57.003831
16254.986772	56.911587
16491.420999	56.832339
16731.294241	56.753218
16974.656520	56.647115
17221.558584	56.507891
17472.051922	56.366641
17726.188769	56.225166
17984.022122	56.124978
18245.605748	55.966616
18510.994194	55.836786
18780.242805	55.732737
19053.407727	55.610670
19330.545924	55.486828
19611.715189	55.382294
19896.974155	55.382294
20186.382308	55.382294